# E (eV)  ldosup(E)  ldosdw(E) pdosup(E)  pdosdw(E)  pdosup(E)  pdosdw(E)  pdosup(E)  pdosdw(E)  pdosup(E)  pdosdw(E)  pdosup(E)  pdosdw(E) 
   5.000  0.175E-04  0.424E-05  0.292E-05  0.938E-06  0.389E-05  0.787E-06  0.389E-05  0.787E-06  0.292E-05  0.938E-06  0.389E-05  0.787E-06
   5.100  0.430E-04  0.163E-04  0.726E-05  0.265E-05  0.950E-05  0.368E-05  0.950E-05  0.368E-05  0.726E-05  0.265E-05  0.950E-05  0.368E-05
   5.200  0.830E-04  0.350E-04  0.153E-04  0.610E-05  0.175E-04  0.761E-05  0.175E-04  0.761E-05  0.153E-04  0.610E-05  0.175E-04  0.761E-05
   5.300  0.147E-03  0.658E-04  0.285E-04  0.124E-04  0.298E-04  0.137E-04  0.298E-04  0.137E-04  0.285E-04  0.124E-04  0.298E-04  0.137E-04
   5.400  0.226E-03  0.109E-03  0.442E-04  0.215E-04  0.459E-04  0.221E-04  0.459E-04  0.221E-04  0.442E-04  0.215E-04  0.459E-04  0.221E-04
   5.500  0.316E-03  0.161E-03  0.589E-04  0.313E-04  0.661E-04  0.329E-04  0.661E-04  0.329E-04  0.589E-04  0.313E-04  0.661E-04  0.329E-04
   5.600  0.462E-03  0.222E-03  0.852E-04  0.411E-04  0.973E-04  0.465E-04  0.973E-04  0.465E-04  0.852E-04  0.411E-04  0.973E-04  0.465E-04
   5.700  0.645E-03  0.314E-03  0.119E-03  0.576E-04  0.136E-03  0.662E-04  0.136E-03  0.662E-04  0.119E-03  0.576E-04  0.136E-03  0.662E-04
   5.800  0.869E-03  0.426E-03  0.161E-03  0.782E-04  0.182E-03  0.899E-04  0.182E-03  0.899E-04  0.161E-03  0.782E-04  0.182E-03  0.899E-04
   5.900  0.114E-02  0.561E-03  0.213E-03  0.104E-03  0.238E-03  0.118E-03  0.238E-03  0.118E-03  0.213E-03  0.104E-03  0.238E-03  0.118E-03
   6.000  0.144E-02  0.721E-03  0.275E-03  0.134E-03  0.295E-03  0.151E-03  0.295E-03  0.151E-03  0.275E-03  0.134E-03  0.295E-03  0.151E-03
   6.100  0.183E-02  0.888E-03  0.348E-03  0.170E-03  0.378E-03  0.183E-03  0.378E-03  0.183E-03  0.348E-03  0.170E-03  0.378E-03  0.183E-03
   6.200  0.230E-02  0.110E-02  0.436E-03  0.209E-03  0.476E-03  0.228E-03  0.476E-03  0.228E-03  0.436E-03  0.209E-03  0.476E-03  0.228E-03
   6.300  0.283E-02  0.135E-02  0.537E-03  0.254E-03  0.585E-03  0.279E-03  0.585E-03  0.279E-03  0.537E-03  0.254E-03  0.585E-03  0.279E-03
   6.400  0.347E-02  0.161E-02  0.663E-03  0.304E-03  0.715E-03  0.334E-03  0.715E-03  0.334E-03  0.663E-03  0.304E-03  0.715E-03  0.334E-03
   6.500  0.428E-02  0.192E-02  0.819E-03  0.365E-03  0.880E-03  0.398E-03  0.880E-03  0.398E-03  0.819E-03  0.365E-03  0.880E-03  0.398E-03
   6.600  0.525E-02  0.230E-02  0.100E-02  0.437E-03  0.108E-02  0.475E-03  0.108E-02  0.475E-03  0.100E-02  0.437E-03  0.108E-02  0.475E-03
   6.700  0.638E-02  0.274E-02  0.122E-02  0.521E-03  0.131E-02  0.566E-03  0.131E-02  0.566E-03  0.122E-02  0.521E-03  0.131E-02  0.566E-03
   6.800  0.771E-02  0.324E-02  0.148E-02  0.616E-03  0.159E-02  0.670E-03  0.159E-02  0.670E-03  0.148E-02  0.616E-03  0.159E-02  0.670E-03
   6.900  0.925E-02  0.381E-02  0.177E-02  0.723E-03  0.190E-02  0.788E-03  0.190E-02  0.788E-03  0.177E-02  0.723E-03  0.190E-02  0.788E-03
   7.000  0.109E-01  0.445E-02  0.211E-02  0.844E-03  0.224E-02  0.920E-03  0.224E-02  0.920E-03  0.211E-02  0.844E-03  0.224E-02  0.920E-03
   7.100  0.131E-01  0.508E-02  0.254E-02  0.966E-03  0.267E-02  0.105E-02  0.267E-02  0.105E-02  0.254E-02  0.966E-03  0.267E-02  0.105E-02
   7.200  0.160E-01  0.580E-02  0.309E-02  0.111E-02  0.326E-02  0.119E-02  0.326E-02  0.119E-02  0.309E-02  0.111E-02  0.326E-02  0.119E-02
   7.300  0.194E-01  0.664E-02  0.376E-02  0.128E-02  0.396E-02  0.136E-02  0.396E-02  0.136E-02  0.376E-02  0.128E-02  0.396E-02  0.136E-02
   7.400  0.234E-01  0.765E-02  0.455E-02  0.147E-02  0.476E-02  0.157E-02  0.476E-02  0.157E-02  0.455E-02  0.147E-02  0.476E-02  0.157E-02
   7.500  0.282E-01  0.878E-02  0.550E-02  0.168E-02  0.574E-02  0.180E-02  0.574E-02  0.180E-02  0.550E-02  0.168E-02  0.574E-02  0.180E-02
   7.600  0.343E-01  0.100E-01  0.668E-02  0.192E-02  0.697E-02  0.205E-02  0.697E-02  0.205E-02  0.668E-02  0.192E-02  0.697E-02  0.205E-02
   7.700  0.421E-01  0.114E-01  0.818E-02  0.219E-02  0.857E-02  0.233E-02  0.857E-02  0.233E-02  0.818E-02  0.219E-02  0.857E-02  0.233E-02
   7.800  0.519E-01  0.129E-01  0.101E-01  0.249E-02  0.106E-01  0.264E-02  0.106E-01  0.264E-02  0.101E-01  0.249E-02  0.106E-01  0.264E-02
   7.900  0.645E-01  0.146E-01  0.127E-01  0.282E-02  0.130E-01  0.299E-02  0.130E-01  0.299E-02  0.127E-01  0.282E-02  0.130E-01  0.299E-02
   8.000  0.827E-01  0.166E-01  0.163E-01  0.320E-02  0.167E-01  0.340E-02  0.167E-01  0.340E-02  0.163E-01  0.320E-02  0.167E-01  0.340E-02
   8.100  0.130E+00  0.188E-01  0.249E-01  0.362E-02  0.268E-01  0.386E-02  0.268E-01  0.386E-02  0.249E-01  0.362E-02  0.268E-01  0.386E-02
   8.200  0.326E+00  0.213E-01  0.615E-01  0.410E-02  0.677E-01  0.438E-02  0.677E-01  0.438E-02  0.615E-01  0.410E-02  0.677E-01  0.438E-02
   8.300  0.409E+00  0.241E-01  0.934E-01  0.465E-02  0.742E-01  0.495E-02  0.742E-01  0.495E-02  0.934E-01  0.465E-02  0.742E-01  0.495E-02
   8.400  0.511E+00  0.274E-01  0.131E+00  0.527E-02  0.829E-01  0.561E-02  0.829E-01  0.561E-02  0.131E+00  0.527E-02  0.829E-01  0.561E-02
   8.500  0.565E+00  0.310E-01  0.159E+00  0.597E-02  0.824E-01  0.634E-02  0.824E-01  0.634E-02  0.159E+00  0.597E-02  0.824E-01  0.634E-02
   8.600  0.644E+00  0.351E-01  0.193E+00  0.676E-02  0.858E-01  0.718E-02  0.858E-01  0.718E-02  0.193E+00  0.676E-02  0.858E-01  0.718E-02
   8.700  0.760E+00  0.403E-01  0.241E+00  0.773E-02  0.929E-01  0.829E-02  0.929E-01  0.829E-02  0.241E+00  0.773E-02  0.929E-01  0.829E-02
   8.800  0.108E+01  0.464E-01  0.369E+00  0.886E-02  0.113E+00  0.956E-02  0.113E+00  0.956E-02  0.369E+00  0.886E-02  0.113E+00  0.956E-02
   8.900  0.102E+01  0.530E-01  0.345E+00  0.101E-01  0.109E+00  0.109E-01  0.109E+00  0.109E-01  0.345E+00  0.101E-01  0.109E+00  0.109E-01
   9.000  0.733E+00  0.607E-01  0.214E+00  0.115E-01  0.102E+00  0.125E-01  0.102E+00  0.125E-01  0.214E+00  0.115E-01  0.102E+00  0.125E-01
   9.100  0.635E+00  0.702E-01  0.165E+00  0.133E-01  0.101E+00  0.145E-01  0.101E+00  0.145E-01  0.165E+00  0.133E-01  0.101E+00  0.145E-01
   9.200  0.551E+00  0.822E-01  0.129E+00  0.156E-01  0.977E-01  0.170E-01  0.977E-01  0.170E-01  0.129E+00  0.156E-01  0.977E-01  0.170E-01
   9.300  0.448E+00  0.967E-01  0.109E+00  0.183E-01  0.765E-01  0.200E-01  0.765E-01  0.200E-01  0.109E+00  0.183E-01  0.765E-01  0.200E-01
   9.400  0.309E+00  0.114E+00  0.102E+00  0.216E-01  0.351E-01  0.236E-01  0.351E-01  0.236E-01  0.102E+00  0.216E-01  0.351E-01  0.236E-01
   9.500  0.312E+00  0.146E+00  0.112E+00  0.270E-01  0.293E-01  0.308E-01  0.293E-01  0.308E-01  0.112E+00  0.270E-01  0.293E-01  0.308E-01
   9.600  0.173E+01  0.231E+00  0.181E+00  0.406E-01  0.455E+00  0.498E-01  0.455E+00  0.498E-01  0.181E+00  0.406E-01  0.455E+00  0.498E-01
   9.700  0.202E+01  0.240E+00  0.259E+00  0.430E-01  0.499E+00  0.513E-01  0.499E+00  0.513E-01  0.259E+00  0.430E-01  0.499E+00  0.513E-01
   9.800  0.126E+01  0.254E+00  0.172E+00  0.462E-01  0.304E+00  0.539E-01  0.304E+00  0.539E-01  0.172E+00  0.462E-01  0.304E+00  0.539E-01
   9.900  0.103E+01  0.256E+00  0.146E+00  0.476E-01  0.246E+00  0.535E-01  0.246E+00  0.535E-01  0.146E+00  0.476E-01  0.246E+00  0.535E-01
  10.000  0.908E+00  0.259E+00  0.925E-01  0.505E-01  0.241E+00  0.528E-01  0.241E+00  0.528E-01  0.925E-01  0.505E-01  0.241E+00  0.528E-01
  10.100  0.875E+00  0.277E+00  0.996E-01  0.562E-01  0.225E+00  0.547E-01  0.225E+00  0.547E-01  0.996E-01  0.562E-01  0.225E+00  0.547E-01
  10.200  0.105E+01  0.293E+00  0.123E+00  0.619E-01  0.267E+00  0.566E-01  0.267E+00  0.566E-01  0.123E+00  0.619E-01  0.267E+00  0.566E-01
  10.300  0.126E+01  0.325E+00  0.142E+00  0.751E-01  0.324E+00  0.581E-01  0.324E+00  0.581E-01  0.142E+00  0.751E-01  0.324E+00  0.581E-01
  10.400  0.180E+01  0.419E+00  0.228E+00  0.119E+00  0.448E+00  0.606E-01  0.448E+00  0.606E-01  0.228E+00  0.119E+00  0.448E+00  0.606E-01
  10.500  0.166E+01  0.556E+00  0.187E+00  0.183E+00  0.429E+00  0.634E-01  0.429E+00  0.634E-01  0.187E+00  0.183E+00  0.429E+00  0.634E-01
  10.600  0.966E+00  0.600E+00  0.110E+00  0.203E+00  0.249E+00  0.645E-01  0.249E+00  0.645E-01  0.110E+00  0.203E+00  0.249E+00  0.645E-01
  10.700  0.577E+00  0.591E+00  0.803E-01  0.199E+00  0.139E+00  0.642E-01  0.139E+00  0.642E-01  0.803E-01  0.199E+00  0.139E+00  0.642E-01
  10.800  0.460E+00  0.441E+00  0.666E-01  0.132E+00  0.109E+00  0.593E-01  0.109E+00  0.593E-01  0.666E-01  0.132E+00  0.109E+00  0.593E-01
  10.900  0.408E+00  0.441E+00  0.577E-01  0.116E+00  0.977E-01  0.697E-01  0.977E-01  0.697E-01  0.577E-01  0.116E+00  0.977E-01  0.697E-01
  11.000  0.406E+00  0.262E+00  0.589E-01  0.811E-01  0.960E-01  0.331E-01  0.960E-01  0.331E-01  0.589E-01  0.811E-01  0.960E-01  0.331E-01
  11.100  0.476E+00  0.225E+00  0.743E-01  0.797E-01  0.109E+00  0.218E-01  0.109E+00  0.218E-01  0.743E-01  0.797E-01  0.109E+00  0.218E-01
  11.200  0.524E+00  0.218E+00  0.806E-01  0.816E-01  0.121E+00  0.183E-01  0.121E+00  0.183E-01  0.806E-01  0.816E-01  0.121E+00  0.183E-01
  11.300  0.645E+00  0.192E+00  0.107E+00  0.867E-01  0.143E+00  0.605E-02  0.143E+00  0.605E-02  0.107E+00  0.867E-01  0.143E+00  0.605E-02
  11.400  0.998E+00  0.728E+00  0.192E+00  0.111E+00  0.205E+00  0.169E+00  0.205E+00  0.169E+00  0.192E+00  0.111E+00  0.205E+00  0.169E+00
  11.500  0.145E+01  0.125E+01  0.339E+00  0.184E+00  0.259E+00  0.296E+00  0.259E+00  0.296E+00  0.339E+00  0.184E+00  0.259E+00  0.296E+00
  11.600  0.204E+01  0.130E+01  0.554E+00  0.159E+00  0.312E+00  0.328E+00  0.312E+00  0.328E+00  0.554E+00  0.159E+00  0.312E+00  0.328E+00
  11.700  0.193E+01  0.135E+01  0.508E+00  0.149E+00  0.305E+00  0.352E+00  0.305E+00  0.352E+00  0.508E+00  0.149E+00  0.305E+00  0.352E+00
  11.800  0.258E+01  0.130E+01  0.844E+00  0.160E+00  0.299E+00  0.327E+00  0.299E+00  0.327E+00  0.844E+00  0.160E+00  0.299E+00  0.327E+00
  11.900  0.257E+01  0.120E+01  0.901E+00  0.135E+00  0.255E+00  0.309E+00  0.255E+00  0.309E+00  0.901E+00  0.135E+00  0.255E+00  0.309E+00
  12.000  0.168E+01  0.104E+01  0.514E+00  0.958E-01  0.216E+00  0.282E+00  0.216E+00  0.282E+00  0.514E+00  0.958E-01  0.216E+00  0.282E+00
  12.100  0.108E+01  0.964E+00  0.253E+00  0.849E-01  0.190E+00  0.265E+00  0.190E+00  0.265E+00  0.253E+00  0.849E-01  0.190E+00  0.265E+00
  12.200  0.951E+00  0.101E+01  0.181E+00  0.875E-01  0.197E+00  0.279E+00  0.197E+00  0.279E+00  0.181E+00  0.875E-01  0.197E+00  0.279E+00
  12.300  0.853E+00  0.119E+01  0.130E+00  0.119E+00  0.198E+00  0.319E+00  0.198E+00  0.319E+00  0.130E+00  0.119E+00  0.198E+00  0.319E+00
  12.400  0.774E+00  0.128E+01  0.962E-01  0.132E+00  0.194E+00  0.340E+00  0.194E+00  0.340E+00  0.962E-01  0.132E+00  0.194E+00  0.340E+00
  12.500  0.741E+00  0.102E+01  0.677E-01  0.846E-01  0.202E+00  0.282E+00  0.202E+00  0.282E+00  0.677E-01  0.846E-01  0.202E+00  0.282E+00
  12.600  0.787E+00  0.853E+00  0.516E-01  0.521E-01  0.228E+00  0.250E+00  0.228E+00  0.250E+00  0.516E-01  0.521E-01  0.228E+00  0.250E+00
  12.700  0.804E+00  0.817E+00  0.381E-01  0.345E-01  0.243E+00  0.249E+00  0.243E+00  0.249E+00  0.381E-01  0.345E-01  0.243E+00  0.249E+00
  12.800  0.810E+00  0.640E+00  0.277E-01  0.187E-01  0.252E+00  0.201E+00  0.252E+00  0.201E+00  0.277E-01  0.187E-01  0.252E+00  0.201E+00
  12.900  0.510E+00  0.241E+00  0.198E-01  0.115E-01  0.157E+00  0.727E-01  0.157E+00  0.727E-01  0.198E-01  0.115E-01  0.157E+00  0.727E-01
  13.000  0.209E+00  0.194E+00  0.144E-01  0.815E-02  0.602E-01  0.592E-01  0.602E-01  0.592E-01  0.144E-01  0.815E-02  0.602E-01  0.592E-01
  13.100  0.905E-01  0.171E+00  0.122E-01  0.576E-02  0.220E-01  0.533E-01  0.220E-01  0.533E-01  0.122E-01  0.576E-02  0.220E-01  0.533E-01
  13.200  0.863E-01  0.203E+00  0.112E-01  0.580E-02  0.213E-01  0.638E-01  0.213E-01  0.638E-01  0.112E-01  0.580E-02  0.213E-01  0.638E-01
  13.300  0.819E-01  0.172E+00  0.103E-01  0.621E-02  0.205E-01  0.533E-01  0.205E-01  0.533E-01  0.103E-01  0.621E-02  0.205E-01  0.533E-01
  13.400  0.768E-01  0.189E+00  0.926E-02  0.842E-02  0.194E-01  0.573E-01  0.194E-01  0.573E-01  0.926E-02  0.842E-02  0.194E-01  0.573E-01
  13.500  0.735E-01  0.239E+00  0.890E-02  0.136E-01  0.186E-01  0.706E-01  0.186E-01  0.706E-01  0.890E-02  0.136E-01  0.186E-01  0.706E-01
  13.600  0.723E-01  0.285E+00  0.894E-02  0.189E-01  0.181E-01  0.822E-01  0.181E-01  0.822E-01  0.894E-02  0.189E-01  0.181E-01  0.822E-01
  13.700  0.690E-01  0.386E+00  0.841E-02  0.298E-01  0.174E-01  0.109E+00  0.174E-01  0.109E+00  0.841E-02  0.298E-01  0.174E-01  0.109E+00
  13.800  0.656E-01  0.421E+00  0.805E-02  0.557E-01  0.165E-01  0.103E+00  0.165E-01  0.103E+00  0.805E-02  0.557E-01  0.165E-01  0.103E+00
  13.900  0.621E-01  0.528E+00  0.766E-02  0.835E-01  0.156E-01  0.120E+00  0.156E-01  0.120E+00  0.766E-02  0.835E-01  0.156E-01  0.120E+00
  14.000  0.585E-01  0.701E+00  0.723E-02  0.123E+00  0.147E-01  0.152E+00  0.147E-01  0.152E+00  0.723E-02  0.123E+00  0.147E-01  0.152E+00
  14.100  0.530E-01  0.832E+00  0.676E-02  0.158E+00  0.132E-01  0.172E+00  0.132E-01  0.172E+00  0.676E-02  0.158E+00  0.132E-01  0.172E+00
  14.200  0.496E-01  0.888E+00  0.634E-02  0.187E+00  0.123E-01  0.171E+00  0.123E-01  0.171E+00  0.634E-02  0.187E+00  0.123E-01  0.171E+00
  14.300  0.468E-01  0.104E+01  0.593E-02  0.229E+00  0.117E-01  0.195E+00  0.117E-01  0.195E+00  0.593E-02  0.229E+00  0.117E-01  0.195E+00
  14.400  0.443E-01  0.125E+01  0.553E-02  0.309E+00  0.111E-01  0.211E+00  0.111E-01  0.211E+00  0.553E-02  0.309E+00  0.111E-01  0.211E+00
  14.500  0.422E-01  0.141E+01  0.520E-02  0.391E+00  0.106E-01  0.209E+00  0.106E-01  0.209E+00  0.520E-02  0.391E+00  0.106E-01  0.209E+00
  14.600  0.401E-01  0.158E+01  0.493E-02  0.480E+00  0.101E-01  0.207E+00  0.101E-01  0.207E+00  0.493E-02  0.480E+00  0.101E-01  0.207E+00
  14.700  0.381E-01  0.131E+01  0.465E-02  0.391E+00  0.958E-02  0.177E+00  0.958E-02  0.177E+00  0.465E-02  0.391E+00  0.958E-02  0.177E+00
  14.800  0.360E-01  0.974E+00  0.438E-02  0.302E+00  0.906E-02  0.123E+00  0.906E-02  0.123E+00  0.438E-02  0.302E+00  0.906E-02  0.123E+00
  14.900  0.339E-01  0.133E+01  0.412E-02  0.481E+00  0.854E-02  0.124E+00  0.854E-02  0.124E+00  0.412E-02  0.481E+00  0.854E-02  0.124E+00
  15.000  0.326E-01  0.191E+01  0.406E-02  0.659E+00  0.816E-02  0.198E+00  0.816E-02  0.198E+00  0.406E-02  0.659E+00  0.816E-02  0.198E+00
  15.100  0.298E-01  0.462E+01  0.361E-02  0.181E+01  0.754E-02  0.335E+00  0.754E-02  0.335E+00  0.361E-02  0.181E+01  0.754E-02  0.335E+00
  15.200  0.283E-01  0.145E+01  0.342E-02  0.323E+00  0.715E-02  0.269E+00  0.715E-02  0.269E+00  0.342E-02  0.323E+00  0.715E-02  0.269E+00
  15.300  0.269E-01  0.106E+01  0.324E-02  0.192E+00  0.681E-02  0.225E+00  0.681E-02  0.225E+00  0.324E-02  0.192E+00  0.681E-02  0.225E+00
  15.400  0.257E-01  0.988E+00  0.306E-02  0.987E-01  0.653E-02  0.264E+00  0.653E-02  0.264E+00  0.306E-02  0.987E-01  0.653E-02  0.264E+00
  15.500  0.238E-01  0.483E+00  0.287E-02  0.705E-01  0.604E-02  0.114E+00  0.604E-02  0.114E+00  0.287E-02  0.705E-01  0.604E-02  0.114E+00
  15.600  0.222E-01  0.257E+00  0.268E-02  0.538E-01  0.560E-02  0.496E-01  0.560E-02  0.496E-01  0.268E-02  0.538E-01  0.560E-02  0.496E-01
  15.700  0.206E-01  0.201E+00  0.251E-02  0.453E-01  0.521E-02  0.367E-01  0.521E-02  0.367E-01  0.251E-02  0.453E-01  0.521E-02  0.367E-01
  15.800  0.191E-01  0.184E+00  0.234E-02  0.360E-01  0.481E-02  0.373E-01  0.481E-02  0.373E-01  0.234E-02  0.360E-01  0.481E-02  0.373E-01
  15.900  0.177E-01  0.177E+00  0.216E-02  0.332E-01  0.448E-02  0.370E-01  0.448E-02  0.370E-01  0.216E-02  0.332E-01  0.448E-02  0.370E-01
  16.000  0.165E-01  0.166E+00  0.200E-02  0.307E-01  0.417E-02  0.350E-01  0.417E-02  0.350E-01  0.200E-02  0.307E-01  0.417E-02  0.350E-01
  16.100  0.153E-01  0.153E+00  0.184E-02  0.282E-01  0.387E-02  0.323E-01  0.387E-02  0.323E-01  0.184E-02  0.282E-01  0.387E-02  0.323E-01
  16.200  0.143E-01  0.140E+00  0.170E-02  0.262E-01  0.361E-02  0.291E-01  0.361E-02  0.291E-01  0.170E-02  0.262E-01  0.361E-02  0.291E-01
  16.300  0.133E-01  0.128E+00  0.158E-02  0.242E-01  0.339E-02  0.267E-01  0.339E-02  0.267E-01  0.158E-02  0.242E-01  0.339E-02  0.267E-01
  16.400  0.124E-01  0.117E+00  0.146E-02  0.217E-01  0.317E-02  0.245E-01  0.317E-02  0.245E-01  0.146E-02  0.217E-01  0.317E-02  0.245E-01
  16.500  0.119E-01  0.109E+00  0.147E-02  0.204E-01  0.298E-02  0.228E-01  0.298E-02  0.228E-01  0.147E-02  0.204E-01  0.298E-02  0.228E-01
  16.600  0.108E-01  0.983E-01  0.126E-02  0.180E-01  0.274E-02  0.208E-01  0.274E-02  0.208E-01  0.126E-02  0.180E-01  0.274E-02  0.208E-01
  16.700  0.100E-01  0.908E-01  0.118E-02  0.163E-01  0.255E-02  0.194E-01  0.255E-02  0.194E-01  0.118E-02  0.163E-01  0.255E-02  0.194E-01
  16.800  0.929E-02  0.844E-01  0.109E-02  0.150E-01  0.237E-02  0.181E-01  0.237E-02  0.181E-01  0.109E-02  0.150E-01  0.237E-02  0.181E-01
  16.900  0.862E-02  0.790E-01  0.101E-02  0.139E-01  0.220E-02  0.171E-01  0.220E-02  0.171E-01  0.101E-02  0.139E-01  0.220E-02  0.171E-01
  17.000  0.797E-02  0.740E-01  0.937E-03  0.130E-01  0.203E-02  0.160E-01  0.203E-02  0.160E-01  0.937E-03  0.130E-01  0.203E-02  0.160E-01
  17.100  0.736E-02  0.692E-01  0.864E-03  0.121E-01  0.188E-02  0.150E-01  0.188E-02  0.150E-01  0.864E-03  0.121E-01  0.188E-02  0.150E-01
  17.200  0.678E-02  0.646E-01  0.794E-03  0.113E-01  0.173E-02  0.140E-01  0.173E-02  0.140E-01  0.794E-03  0.113E-01  0.173E-02  0.140E-01
  17.300  0.622E-02  0.601E-01  0.727E-03  0.105E-01  0.159E-02  0.131E-01  0.159E-02  0.131E-01  0.727E-03  0.105E-01  0.159E-02  0.131E-01
  17.400  0.580E-02  0.557E-01  0.678E-03  0.962E-02  0.148E-02  0.122E-01  0.148E-02  0.122E-01  0.678E-03  0.962E-02  0.148E-02  0.122E-01
  17.500  0.532E-02  0.511E-01  0.617E-03  0.886E-02  0.136E-02  0.111E-01  0.136E-02  0.111E-01  0.617E-03  0.886E-02  0.136E-02  0.111E-01
  17.600  0.489E-02  0.467E-01  0.560E-03  0.811E-02  0.126E-02  0.101E-01  0.126E-02  0.101E-01  0.560E-03  0.811E-02  0.126E-02  0.101E-01
  17.700  0.452E-02  0.429E-01  0.506E-03  0.741E-02  0.117E-02  0.935E-02  0.117E-02  0.935E-02  0.506E-03  0.741E-02  0.117E-02  0.935E-02
  17.800  0.408E-02  0.413E-01  0.455E-03  0.741E-02  0.106E-02  0.882E-02  0.106E-02  0.882E-02  0.455E-03  0.741E-02  0.106E-02  0.882E-02
  17.900  0.365E-02  0.369E-01  0.408E-03  0.627E-02  0.944E-03  0.811E-02  0.944E-03  0.811E-02  0.408E-03  0.627E-02  0.944E-03  0.811E-02
  18.000  0.327E-02  0.343E-01  0.366E-03  0.585E-02  0.845E-03  0.754E-02  0.845E-03  0.754E-02  0.366E-03  0.585E-02  0.845E-03  0.754E-02
  18.100  0.297E-02  0.318E-01  0.341E-03  0.544E-02  0.763E-03  0.699E-02  0.763E-03  0.699E-02  0.341E-03  0.544E-02  0.763E-03  0.699E-02
  18.200  0.286E-02  0.295E-01  0.337E-03  0.504E-02  0.729E-03  0.648E-02  0.729E-03  0.648E-02  0.337E-03  0.504E-02  0.729E-03  0.648E-02
  18.300  0.221E-02  0.274E-01  0.271E-03  0.467E-02  0.555E-03  0.600E-02  0.555E-03  0.600E-02  0.271E-03  0.467E-02  0.555E-03  0.600E-02
  18.400  0.174E-02  0.253E-01  0.225E-03  0.432E-02  0.429E-03  0.556E-02  0.429E-03  0.556E-02  0.225E-03  0.432E-02  0.429E-03  0.556E-02
  18.500  0.156E-02  0.234E-01  0.203E-03  0.399E-02  0.385E-03  0.514E-02  0.385E-03  0.514E-02  0.203E-03  0.399E-02  0.385E-03  0.514E-02
  18.600  0.140E-02  0.216E-01  0.183E-03  0.367E-02  0.344E-03  0.474E-02  0.344E-03  0.474E-02  0.183E-03  0.367E-02  0.344E-03  0.474E-02
  18.700  0.124E-02  0.198E-01  0.163E-03  0.336E-02  0.305E-03  0.437E-02  0.305E-03  0.437E-02  0.163E-03  0.336E-02  0.305E-03  0.437E-02
  18.800  0.110E-02  0.186E-01  0.145E-03  0.315E-02  0.269E-03  0.409E-02  0.269E-03  0.409E-02  0.145E-03  0.315E-02  0.269E-03  0.409E-02
  18.900  0.961E-03  0.171E-01  0.128E-03  0.287E-02  0.235E-03  0.377E-02  0.235E-03  0.377E-02  0.128E-03  0.287E-02  0.235E-03  0.377E-02
  19.000  0.830E-03  0.157E-01  0.111E-03  0.261E-02  0.202E-03  0.348E-02  0.202E-03  0.348E-02  0.111E-03  0.261E-02  0.202E-03  0.348E-02
  19.100  0.712E-03  0.153E-01  0.963E-04  0.240E-02  0.173E-03  0.351E-02  0.173E-03  0.351E-02  0.963E-04  0.240E-02  0.173E-03  0.351E-02
  19.200  0.607E-03  0.131E-01  0.828E-04  0.228E-02  0.147E-03  0.286E-02  0.147E-03  0.286E-02  0.828E-04  0.228E-02  0.147E-03  0.286E-02
  19.300  0.513E-03  0.117E-01  0.708E-04  0.204E-02  0.124E-03  0.256E-02  0.124E-03  0.256E-02  0.708E-04  0.204E-02  0.124E-03  0.256E-02
  19.400  0.430E-03  0.105E-01  0.601E-04  0.183E-02  0.103E-03  0.229E-02  0.103E-03  0.229E-02  0.601E-04  0.183E-02  0.103E-03  0.229E-02
  19.500  0.356E-03  0.104E-01  0.507E-04  0.180E-02  0.850E-04  0.225E-02  0.850E-04  0.225E-02  0.507E-04  0.180E-02  0.850E-04  0.225E-02
  19.600  0.292E-03  0.687E-02  0.423E-04  0.133E-02  0.692E-04  0.141E-02  0.692E-04  0.141E-02  0.423E-04  0.133E-02  0.692E-04  0.141E-02
  19.700  0.237E-03  0.617E-02  0.351E-04  0.120E-02  0.555E-04  0.126E-02  0.555E-04  0.126E-02  0.351E-04  0.120E-02  0.555E-04  0.126E-02
  19.800  0.202E-03  0.551E-02  0.288E-04  0.108E-02  0.482E-04  0.112E-02  0.482E-04  0.112E-02  0.288E-04  0.108E-02  0.482E-04  0.112E-02
  19.900  0.123E-03  0.490E-02  0.234E-04  0.963E-03  0.255E-04  0.991E-03  0.255E-04  0.991E-03  0.234E-04  0.963E-03  0.255E-04  0.991E-03
  20.000  0.418E-03  0.432E-02  0.430E-04  0.853E-03  0.111E-03  0.871E-03  0.111E-03  0.871E-03  0.430E-04  0.853E-03  0.111E-03  0.871E-03
  20.100  0.143E-02  0.374E-02  0.935E-04  0.740E-03  0.415E-03  0.753E-03  0.415E-03  0.753E-03  0.935E-04  0.740E-03  0.415E-03  0.753E-03
