#  E (eV)   dos(E)     Int dos(E) EFermi =    0.921 eV
 -18.668  0.1390E+00  0.2196E-02
 -18.658  0.1792E+00  0.3791E-02
 -18.648  0.2156E+00  0.5768E-02
 -18.638  0.2482E+00  0.8090E-02
 -18.628  0.2771E+00  0.1072E-01
 -18.618  0.3022E+00  0.1362E-01
 -18.608  0.3235E+00  0.1675E-01
 -18.598  0.3411E+00  0.2008E-01
 -18.588  0.3550E+00  0.2356E-01
 -18.578  0.3650E+00  0.2716E-01
 -18.568  0.3713E+00  0.3085E-01
 -18.558  0.3774E+00  0.3458E-01
 -18.548  0.3918E+00  0.3848E-01
 -18.538  0.3408E+00  0.4220E-01
 -18.528  0.2729E+00  0.4516E-01
 -18.518  0.2748E+00  0.4790E-01
 -18.508  0.2767E+00  0.5066E-01
 -18.498  0.2786E+00  0.5343E-01
 -18.488  0.2805E+00  0.5623E-01
 -18.478  0.2823E+00  0.5904E-01
 -18.468  0.2842E+00  0.6187E-01
 -18.458  0.2860E+00  0.6472E-01
 -18.448  0.2879E+00  0.6759E-01
 -18.438  0.2897E+00  0.7048E-01
 -18.428  0.2916E+00  0.7339E-01
 -18.418  0.2934E+00  0.7631E-01
 -18.408  0.2952E+00  0.7926E-01
 -18.398  0.2970E+00  0.8222E-01
 -18.388  0.2988E+00  0.8520E-01
 -18.378  0.3006E+00  0.8819E-01
 -18.368  0.3024E+00  0.9121E-01
 -18.358  0.3042E+00  0.9424E-01
 -18.348  0.3060E+00  0.9729E-01
 -18.338  0.3078E+00  0.1004E+00
 -18.328  0.3095E+00  0.1034E+00
 -18.318  0.3113E+00  0.1066E+00
 -18.308  0.3130E+00  0.1097E+00
 -18.298  0.3148E+00  0.1128E+00
 -18.288  0.3165E+00  0.1160E+00
 -18.278  0.3183E+00  0.1191E+00
 -18.268  0.3200E+00  0.1223E+00
 -18.258  0.3217E+00  0.1255E+00
 -18.248  0.3234E+00  0.1288E+00
 -18.238  0.3251E+00  0.1320E+00
 -18.228  0.3268E+00  0.1353E+00
 -18.218  0.3286E+00  0.1385E+00
 -18.208  0.3305E+00  0.1418E+00
 -18.198  0.3286E+00  0.1451E+00
 -18.188  0.3248E+00  0.1484E+00
 -18.178  0.3213E+00  0.1516E+00
 -18.168  0.3180E+00  0.1548E+00
 -18.158  0.3149E+00  0.1580E+00
 -18.148  0.3122E+00  0.1611E+00
 -18.138  0.3096E+00  0.1642E+00
 -18.128  0.3074E+00  0.1673E+00
 -18.118  0.3053E+00  0.1704E+00
 -18.108  0.3035E+00  0.1734E+00
 -18.098  0.3020E+00  0.1765E+00
 -18.088  0.3007E+00  0.1795E+00
 -18.078  0.2997E+00  0.1825E+00
 -18.068  0.2990E+00  0.1855E+00
 -18.058  0.2981E+00  0.1885E+00
 -18.048  0.2968E+00  0.1914E+00
 -18.038  0.2954E+00  0.1944E+00
 -18.028  0.2960E+00  0.1974E+00
 -18.018  0.2966E+00  0.2003E+00
 -18.008  0.2973E+00  0.2033E+00
 -17.998  0.2979E+00  0.2063E+00
 -17.988  0.2985E+00  0.2092E+00
 -17.978  0.2992E+00  0.2122E+00
 -17.968  0.2998E+00  0.2152E+00
 -17.958  0.3004E+00  0.2182E+00
 -17.948  0.3011E+00  0.2212E+00
 -17.938  0.3017E+00  0.2243E+00
 -17.928  0.3023E+00  0.2273E+00
 -17.918  0.3029E+00  0.2303E+00
 -17.908  0.3036E+00  0.2333E+00
 -17.898  0.3042E+00  0.2364E+00
 -17.888  0.3048E+00  0.2394E+00
 -17.878  0.3054E+00  0.2425E+00
 -17.868  0.3061E+00  0.2455E+00
 -17.858  0.3067E+00  0.2486E+00
 -17.848  0.3073E+00  0.2517E+00
 -17.838  0.3079E+00  0.2547E+00
 -17.828  0.3086E+00  0.2578E+00
 -17.818  0.3092E+00  0.2609E+00
 -17.808  0.3098E+00  0.2640E+00
 -17.798  0.3104E+00  0.2671E+00
 -17.788  0.3111E+00  0.2702E+00
 -17.778  0.3117E+00  0.2733E+00
 -17.768  0.3123E+00  0.2764E+00
 -17.758  0.3129E+00  0.2796E+00
 -17.748  0.3135E+00  0.2827E+00
 -17.738  0.3142E+00  0.2858E+00
 -17.728  0.3148E+00  0.2890E+00
 -17.718  0.3154E+00  0.2921E+00
 -17.708  0.3160E+00  0.2953E+00
 -17.698  0.3166E+00  0.2985E+00
 -17.688  0.3173E+00  0.3016E+00
 -17.678  0.3179E+00  0.3048E+00
 -17.668  0.3185E+00  0.3080E+00
 -17.658  0.3191E+00  0.3112E+00
 -17.648  0.3197E+00  0.3144E+00
 -17.638  0.3203E+00  0.3176E+00
 -17.628  0.3210E+00  0.3208E+00
 -17.618  0.3216E+00  0.3240E+00
 -17.608  0.3222E+00  0.3272E+00
 -17.598  0.3228E+00  0.3304E+00
 -17.588  0.3234E+00  0.3337E+00
 -17.578  0.3241E+00  0.3369E+00
 -17.568  0.3235E+00  0.3401E+00
 -17.558  0.3164E+00  0.3433E+00
 -17.548  0.3087E+00  0.3465E+00
 -17.538  0.3085E+00  0.3495E+00
 -17.528  0.3082E+00  0.3526E+00
 -17.518  0.3080E+00  0.3557E+00
 -17.508  0.3078E+00  0.3588E+00
 -17.498  0.3076E+00  0.3619E+00
 -17.488  0.3074E+00  0.3649E+00
 -17.478  0.3073E+00  0.3680E+00
 -17.468  0.3071E+00  0.3711E+00
 -17.458  0.3070E+00  0.3742E+00
 -17.448  0.3068E+00  0.3772E+00
 -17.438  0.3067E+00  0.3803E+00
 -17.428  0.3066E+00  0.3834E+00
 -17.418  0.3065E+00  0.3864E+00
 -17.408  0.3064E+00  0.3895E+00
 -17.398  0.3064E+00  0.3926E+00
 -17.388  0.3063E+00  0.3956E+00
 -17.378  0.3063E+00  0.3987E+00
 -17.368  0.3062E+00  0.4017E+00
 -17.358  0.3062E+00  0.4048E+00
 -17.348  0.3062E+00  0.4079E+00
 -17.338  0.3062E+00  0.4109E+00
 -17.328  0.3062E+00  0.4140E+00
 -17.318  0.3062E+00  0.4171E+00
 -17.308  0.3063E+00  0.4201E+00
 -17.298  0.3063E+00  0.4232E+00
 -17.288  0.3064E+00  0.4262E+00
 -17.278  0.3064E+00  0.4293E+00
 -17.268  0.3065E+00  0.4324E+00
 -17.258  0.3066E+00  0.4354E+00
 -17.248  0.3067E+00  0.4385E+00
 -17.238  0.3068E+00  0.4416E+00
 -17.228  0.3067E+00  0.4446E+00
 -17.218  0.3065E+00  0.4477E+00
 -17.208  0.3069E+00  0.4508E+00
 -17.198  0.3072E+00  0.4538E+00
 -17.188  0.3076E+00  0.4569E+00
 -17.178  0.3079E+00  0.4600E+00
 -17.168  0.3083E+00  0.4631E+00
 -17.158  0.3086E+00  0.4662E+00
 -17.148  0.3090E+00  0.4692E+00
 -17.138  0.3093E+00  0.4723E+00
 -17.128  0.3097E+00  0.4754E+00
 -17.118  0.3100E+00  0.4785E+00
 -17.108  0.3104E+00  0.4816E+00
 -17.098  0.3107E+00  0.4847E+00
 -17.088  0.3111E+00  0.4878E+00
 -17.078  0.3114E+00  0.4910E+00
 -17.068  0.3118E+00  0.4941E+00
 -17.058  0.3121E+00  0.4972E+00
 -17.048  0.3125E+00  0.5003E+00
 -17.038  0.3128E+00  0.5034E+00
 -17.028  0.3132E+00  0.5066E+00
 -17.018  0.3135E+00  0.5097E+00
 -17.008  0.3139E+00  0.5128E+00
 -16.998  0.3142E+00  0.5160E+00
 -16.988  0.3146E+00  0.5191E+00
 -16.978  0.3149E+00  0.5223E+00
 -16.968  0.3153E+00  0.5254E+00
 -16.958  0.3156E+00  0.5286E+00
 -16.948  0.3159E+00  0.5317E+00
 -16.938  0.3163E+00  0.5349E+00
 -16.928  0.3166E+00  0.5381E+00
 -16.918  0.3170E+00  0.5412E+00
 -16.908  0.3173E+00  0.5444E+00
 -16.898  0.3177E+00  0.5476E+00
 -16.888  0.3180E+00  0.5508E+00
 -16.878  0.3184E+00  0.5539E+00
 -16.868  0.3187E+00  0.5571E+00
 -16.858  0.3191E+00  0.5603E+00
 -16.848  0.3194E+00  0.5635E+00
 -16.838  0.3198E+00  0.5667E+00
 -16.828  0.3201E+00  0.5699E+00
 -16.818  0.3204E+00  0.5731E+00
 -16.808  0.3208E+00  0.5763E+00
 -16.798  0.3211E+00  0.5795E+00
 -16.788  0.3215E+00  0.5827E+00
 -16.778  0.3218E+00  0.5859E+00
 -16.768  0.3222E+00  0.5892E+00
 -16.758  0.3225E+00  0.5924E+00
 -16.748  0.3229E+00  0.5956E+00
 -16.738  0.3212E+00  0.5988E+00
 -16.728  0.3202E+00  0.6020E+00
 -16.718  0.3193E+00  0.6052E+00
 -16.708  0.3184E+00  0.6084E+00
 -16.698  0.3176E+00  0.6116E+00
 -16.688  0.3169E+00  0.6148E+00
 -16.678  0.3162E+00  0.6180E+00
 -16.668  0.3155E+00  0.6211E+00
 -16.658  0.3149E+00  0.6243E+00
 -16.648  0.3144E+00  0.6274E+00
 -16.638  0.3139E+00  0.6305E+00
 -16.628  0.3134E+00  0.6337E+00
 -16.618  0.3130E+00  0.6368E+00
 -16.608  0.3127E+00  0.6399E+00
 -16.598  0.3123E+00  0.6431E+00
 -16.588  0.3118E+00  0.6462E+00
 -16.578  0.3101E+00  0.6493E+00
 -16.568  0.3102E+00  0.6524E+00
 -16.558  0.3103E+00  0.6555E+00
 -16.548  0.3104E+00  0.6586E+00
 -16.538  0.3105E+00  0.6617E+00
 -16.528  0.3106E+00  0.6648E+00
 -16.518  0.3107E+00  0.6679E+00
 -16.508  0.3108E+00  0.6710E+00
 -16.498  0.3109E+00  0.6741E+00
 -16.488  0.3110E+00  0.6772E+00
 -16.478  0.3112E+00  0.6804E+00
 -16.468  0.3113E+00  0.6835E+00
 -16.458  0.3114E+00  0.6866E+00
 -16.448  0.3115E+00  0.6897E+00
 -16.438  0.3117E+00  0.6928E+00
 -16.428  0.3118E+00  0.6959E+00
 -16.418  0.3119E+00  0.6991E+00
 -16.408  0.3121E+00  0.7022E+00
 -16.398  0.3122E+00  0.7053E+00
 -16.388  0.3123E+00  0.7084E+00
 -16.378  0.3125E+00  0.7115E+00
 -16.368  0.3126E+00  0.7147E+00
 -16.358  0.3127E+00  0.7178E+00
 -16.348  0.3129E+00  0.7209E+00
 -16.338  0.3130E+00  0.7240E+00
 -16.328  0.3132E+00  0.7272E+00
 -16.318  0.3133E+00  0.7303E+00
 -16.308  0.3135E+00  0.7334E+00
 -16.298  0.3136E+00  0.7366E+00
 -16.288  0.3138E+00  0.7397E+00
 -16.278  0.3140E+00  0.7429E+00
 -16.268  0.3141E+00  0.7460E+00
 -16.258  0.3143E+00  0.7491E+00
 -16.248  0.3144E+00  0.7523E+00
 -16.238  0.3146E+00  0.7554E+00
 -16.228  0.3148E+00  0.7586E+00
 -16.218  0.3149E+00  0.7617E+00
 -16.208  0.3151E+00  0.7649E+00
 -16.198  0.3153E+00  0.7680E+00
 -16.188  0.3155E+00  0.7712E+00
 -16.178  0.3156E+00  0.7743E+00
 -16.168  0.3158E+00  0.7775E+00
 -16.158  0.3160E+00  0.7807E+00
 -16.148  0.3162E+00  0.7838E+00
 -16.138  0.3164E+00  0.7870E+00
 -16.128  0.3166E+00  0.7901E+00
 -16.118  0.3167E+00  0.7933E+00
 -16.108  0.3169E+00  0.7965E+00
 -16.098  0.3154E+00  0.7996E+00
 -16.088  0.3154E+00  0.8028E+00
 -16.078  0.3156E+00  0.8059E+00
 -16.068  0.3159E+00  0.8091E+00
 -16.058  0.3161E+00  0.8123E+00
 -16.048  0.3164E+00  0.8154E+00
 -16.038  0.3166E+00  0.8186E+00
 -16.028  0.3169E+00  0.8218E+00
 -16.018  0.3172E+00  0.8249E+00
 -16.008  0.3174E+00  0.8281E+00
 -15.998  0.3177E+00  0.8313E+00
 -15.988  0.3179E+00  0.8345E+00
 -15.978  0.3182E+00  0.8376E+00
 -15.968  0.3185E+00  0.8408E+00
 -15.958  0.3187E+00  0.8440E+00
 -15.948  0.3190E+00  0.8472E+00
 -15.938  0.3192E+00  0.8504E+00
 -15.928  0.3195E+00  0.8536E+00
 -15.918  0.3198E+00  0.8568E+00
 -15.908  0.3200E+00  0.8600E+00
 -15.898  0.3203E+00  0.8632E+00
 -15.888  0.3206E+00  0.8664E+00
 -15.878  0.3208E+00  0.8696E+00
 -15.868  0.3211E+00  0.8728E+00
 -15.858  0.3214E+00  0.8760E+00
 -15.848  0.3216E+00  0.8792E+00
 -15.838  0.3219E+00  0.8824E+00
 -15.828  0.3222E+00  0.8857E+00
 -15.818  0.3225E+00  0.8889E+00
 -15.808  0.3227E+00  0.8921E+00
 -15.798  0.3230E+00  0.8953E+00
 -15.788  0.3233E+00  0.8986E+00
 -15.778  0.3236E+00  0.9018E+00
 -15.768  0.3238E+00  0.9050E+00
 -15.758  0.3241E+00  0.9083E+00
 -15.748  0.3244E+00  0.9115E+00
 -15.738  0.3247E+00  0.9148E+00
 -15.728  0.3250E+00  0.9180E+00
 -15.718  0.3252E+00  0.9213E+00
 -15.708  0.3255E+00  0.9245E+00
 -15.698  0.3258E+00  0.9278E+00
 -15.688  0.3261E+00  0.9310E+00
 -15.678  0.3264E+00  0.9343E+00
 -15.668  0.3267E+00  0.9376E+00
 -15.658  0.3269E+00  0.9408E+00
 -15.648  0.3247E+00  0.9441E+00
 -15.638  0.3209E+00  0.9473E+00
 -15.628  0.3190E+00  0.9505E+00
 -15.618  0.3167E+00  0.9537E+00
 -15.608  0.3169E+00  0.9569E+00
 -15.598  0.3170E+00  0.9600E+00
 -15.588  0.3171E+00  0.9632E+00
 -15.578  0.3172E+00  0.9664E+00
 -15.568  0.3173E+00  0.9695E+00
 -15.558  0.3175E+00  0.9727E+00
 -15.548  0.3176E+00  0.9759E+00
 -15.538  0.3177E+00  0.9791E+00
 -15.528  0.3179E+00  0.9822E+00
 -15.518  0.3180E+00  0.9854E+00
 -15.508  0.3182E+00  0.9886E+00
 -15.498  0.3183E+00  0.9918E+00
 -15.488  0.3185E+00  0.9950E+00
 -15.478  0.3186E+00  0.9982E+00
 -15.468  0.3188E+00  0.1001E+01
 -15.458  0.3190E+00  0.1005E+01
 -15.448  0.3192E+00  0.1008E+01
 -15.438  0.3193E+00  0.1011E+01
 -15.428  0.3195E+00  0.1014E+01
 -15.418  0.3197E+00  0.1017E+01
 -15.408  0.3199E+00  0.1021E+01
 -15.398  0.3201E+00  0.1024E+01
 -15.388  0.3203E+00  0.1027E+01
 -15.378  0.3205E+00  0.1030E+01
 -15.368  0.3207E+00  0.1033E+01
 -15.358  0.3209E+00  0.1037E+01
 -15.348  0.3211E+00  0.1040E+01
 -15.338  0.3214E+00  0.1043E+01
 -15.328  0.3217E+00  0.1046E+01
 -15.318  0.3179E+00  0.1049E+01
 -15.308  0.3150E+00  0.1053E+01
 -15.298  0.3122E+00  0.1056E+01
 -15.288  0.3097E+00  0.1059E+01
 -15.278  0.3093E+00  0.1062E+01
 -15.268  0.3096E+00  0.1065E+01
 -15.258  0.3099E+00  0.1068E+01
 -15.248  0.3102E+00  0.1071E+01
 -15.238  0.3104E+00  0.1074E+01
 -15.228  0.3107E+00  0.1077E+01
 -15.218  0.3109E+00  0.1080E+01
 -15.208  0.3112E+00  0.1084E+01
 -15.198  0.3115E+00  0.1087E+01
 -15.188  0.3117E+00  0.1090E+01
 -15.178  0.3120E+00  0.1093E+01
 -15.168  0.3123E+00  0.1096E+01
 -15.158  0.3126E+00  0.1099E+01
 -15.148  0.3129E+00  0.1102E+01
 -15.138  0.3132E+00  0.1105E+01
 -15.128  0.3135E+00  0.1109E+01
 -15.118  0.3138E+00  0.1112E+01
 -15.108  0.3142E+00  0.1115E+01
 -15.098  0.3145E+00  0.1118E+01
 -15.088  0.3148E+00  0.1121E+01
 -15.078  0.3152E+00  0.1124E+01
 -15.068  0.3155E+00  0.1127E+01
 -15.058  0.3159E+00  0.1131E+01
 -15.048  0.3162E+00  0.1134E+01
 -15.038  0.3166E+00  0.1137E+01
 -15.028  0.3170E+00  0.1140E+01
 -15.018  0.3174E+00  0.1143E+01
 -15.008  0.3178E+00  0.1146E+01
 -14.998  0.3182E+00  0.1150E+01
 -14.988  0.3186E+00  0.1153E+01
 -14.978  0.3190E+00  0.1156E+01
 -14.968  0.3194E+00  0.1159E+01
 -14.958  0.3198E+00  0.1162E+01
 -14.948  0.3202E+00  0.1166E+01
 -14.938  0.3207E+00  0.1169E+01
 -14.928  0.3211E+00  0.1172E+01
 -14.918  0.3215E+00  0.1175E+01
 -14.908  0.3220E+00  0.1178E+01
 -14.898  0.3224E+00  0.1182E+01
 -14.888  0.3229E+00  0.1185E+01
 -14.878  0.3234E+00  0.1188E+01
 -14.868  0.3239E+00  0.1191E+01
 -14.858  0.3243E+00  0.1195E+01
 -14.848  0.3248E+00  0.1198E+01
 -14.838  0.3253E+00  0.1201E+01
 -14.828  0.3258E+00  0.1204E+01
 -14.818  0.3263E+00  0.1208E+01
 -14.808  0.3268E+00  0.1211E+01
 -14.798  0.3274E+00  0.1214E+01
 -14.788  0.3279E+00  0.1217E+01
 -14.778  0.3284E+00  0.1221E+01
 -14.768  0.3290E+00  0.1224E+01
 -14.758  0.3295E+00  0.1227E+01
 -14.748  0.3301E+00  0.1231E+01
 -14.738  0.3306E+00  0.1234E+01
 -14.728  0.3312E+00  0.1237E+01
 -14.718  0.3318E+00  0.1240E+01
 -14.708  0.3310E+00  0.1244E+01
 -14.698  0.3286E+00  0.1247E+01
 -14.688  0.3266E+00  0.1250E+01
 -14.678  0.3260E+00  0.1254E+01
 -14.668  0.3253E+00  0.1257E+01
 -14.658  0.3247E+00  0.1260E+01
 -14.648  0.3240E+00  0.1263E+01
 -14.638  0.3241E+00  0.1267E+01
 -14.628  0.3249E+00  0.1270E+01
 -14.618  0.3256E+00  0.1273E+01
 -14.608  0.3264E+00  0.1276E+01
 -14.598  0.3271E+00  0.1280E+01
 -14.588  0.3278E+00  0.1283E+01
 -14.578  0.3285E+00  0.1286E+01
 -14.568  0.3292E+00  0.1290E+01
 -14.558  0.3299E+00  0.1293E+01
 -14.548  0.3306E+00  0.1296E+01
 -14.538  0.3312E+00  0.1299E+01
 -14.528  0.3319E+00  0.1303E+01
 -14.518  0.3326E+00  0.1306E+01
 -14.508  0.3332E+00  0.1309E+01
 -14.498  0.3339E+00  0.1313E+01
 -14.488  0.3346E+00  0.1316E+01
 -14.478  0.3353E+00  0.1319E+01
 -14.468  0.3360E+00  0.1323E+01
 -14.458  0.3367E+00  0.1326E+01
 -14.448  0.3375E+00  0.1330E+01
 -14.438  0.3382E+00  0.1333E+01
 -14.428  0.3389E+00  0.1336E+01
 -14.418  0.3394E+00  0.1340E+01
 -14.408  0.3395E+00  0.1343E+01
 -14.398  0.3348E+00  0.1346E+01
 -14.388  0.3256E+00  0.1350E+01
 -14.378  0.3170E+00  0.1353E+01
 -14.368  0.3126E+00  0.1356E+01
 -14.358  0.3176E+00  0.1359E+01
 -14.348  0.3227E+00  0.1362E+01
 -14.338  0.3271E+00  0.1366E+01
 -14.328  0.3311E+00  0.1369E+01
 -14.318  0.3344E+00  0.1372E+01
 -14.308  0.3371E+00  0.1376E+01
 -14.298  0.3393E+00  0.1379E+01
 -14.288  0.3410E+00  0.1382E+01
 -14.278  0.3433E+00  0.1386E+01
 -14.268  0.3465E+00  0.1389E+01
 -14.258  0.3472E+00  0.1393E+01
 -14.248  0.3379E+00  0.1396E+01
 -14.238  0.3297E+00  0.1400E+01
 -14.228  0.3272E+00  0.1403E+01
 -14.218  0.3249E+00  0.1406E+01
 -14.208  0.3226E+00  0.1409E+01
 -14.198  0.3203E+00  0.1413E+01
 -14.188  0.3205E+00  0.1416E+01
 -14.178  0.3224E+00  0.1419E+01
 -14.168  0.3242E+00  0.1422E+01
 -14.158  0.3260E+00  0.1425E+01
 -14.148  0.3278E+00  0.1429E+01
 -14.138  0.3296E+00  0.1432E+01
 -14.128  0.3313E+00  0.1435E+01
 -14.118  0.3330E+00  0.1439E+01
 -14.108  0.3347E+00  0.1442E+01
 -14.098  0.3364E+00  0.1445E+01
 -14.088  0.3380E+00  0.1449E+01
 -14.078  0.3397E+00  0.1452E+01
 -14.068  0.3413E+00  0.1455E+01
 -14.058  0.3430E+00  0.1459E+01
 -14.048  0.3448E+00  0.1462E+01
 -14.038  0.3465E+00  0.1466E+01
 -14.028  0.3483E+00  0.1469E+01
 -14.018  0.3501E+00  0.1473E+01
 -14.008  0.3520E+00  0.1476E+01
 -13.998  0.3538E+00  0.1480E+01
 -13.988  0.3557E+00  0.1483E+01
 -13.978  0.3577E+00  0.1487E+01
 -13.968  0.3596E+00  0.1491E+01
 -13.958  0.3616E+00  0.1494E+01
 -13.948  0.3636E+00  0.1498E+01
 -13.938  0.3657E+00  0.1501E+01
 -13.928  0.3678E+00  0.1505E+01
 -13.918  0.3699E+00  0.1509E+01
 -13.908  0.3720E+00  0.1512E+01
 -13.898  0.3742E+00  0.1516E+01
 -13.888  0.3764E+00  0.1520E+01
 -13.878  0.3786E+00  0.1524E+01
 -13.868  0.3808E+00  0.1528E+01
 -13.858  0.3831E+00  0.1531E+01
 -13.848  0.3854E+00  0.1535E+01
 -13.838  0.3878E+00  0.1539E+01
 -13.828  0.3903E+00  0.1543E+01
 -13.818  0.3890E+00  0.1547E+01
 -13.808  0.3837E+00  0.1551E+01
 -13.798  0.3783E+00  0.1555E+01
 -13.788  0.3728E+00  0.1558E+01
 -13.778  0.3672E+00  0.1562E+01
 -13.768  0.3628E+00  0.1566E+01
 -13.758  0.3604E+00  0.1569E+01
 -13.748  0.3582E+00  0.1573E+01
 -13.738  0.3586E+00  0.1576E+01
 -13.728  0.3769E+00  0.1580E+01
 -13.718  0.4155E+00  0.1584E+01
 -13.708  0.4592E+00  0.1588E+01
 -13.698  0.4969E+00  0.1593E+01
 -13.688  0.5288E+00  0.1598E+01
 -13.678  0.5547E+00  0.1604E+01
 -13.668  0.5748E+00  0.1609E+01
 -13.658  0.6007E+00  0.1615E+01
 -13.648  0.6200E+00  0.1621E+01
 -13.638  0.6325E+00  0.1628E+01
 -13.628  0.6383E+00  0.1634E+01
 -13.618  0.6374E+00  0.1640E+01
 -13.608  0.6297E+00  0.1647E+01
 -13.598  0.6181E+00  0.1653E+01
 -13.588  0.6064E+00  0.1659E+01
 -13.578  0.5944E+00  0.1665E+01
 -13.568  0.5822E+00  0.1671E+01
 -13.558  0.5698E+00  0.1677E+01
 -13.548  0.5573E+00  0.1682E+01
 -13.538  0.5445E+00  0.1688E+01
 -13.528  0.5315E+00  0.1693E+01
 -13.518  0.5183E+00  0.1699E+01
 -13.508  0.5050E+00  0.1704E+01
 -13.498  0.4914E+00  0.1709E+01
 -13.488  0.4776E+00  0.1713E+01
 -13.478  0.4636E+00  0.1718E+01
 -13.468  0.4494E+00  0.1723E+01
 -13.458  0.4351E+00  0.1727E+01
 -13.448  0.4205E+00  0.1731E+01
 -13.438  0.4057E+00  0.1736E+01
 -13.428  0.3907E+00  0.1740E+01
 -13.418  0.3755E+00  0.1743E+01
 -13.408  0.3602E+00  0.1747E+01
 -13.398  0.3446E+00  0.1751E+01
 -13.388  0.3289E+00  0.1754E+01
 -13.378  0.3239E+00  0.1757E+01
 -13.368  0.3191E+00  0.1760E+01
 -13.358  0.3142E+00  0.1764E+01
 -13.348  0.3093E+00  0.1767E+01
 -13.338  0.3044E+00  0.1770E+01
 -13.328  0.2995E+00  0.1773E+01
 -13.318  0.2945E+00  0.1776E+01
 -13.308  0.2896E+00  0.1779E+01
 -13.298  0.2866E+00  0.1782E+01
 -13.288  0.2843E+00  0.1784E+01
 -13.278  0.2821E+00  0.1787E+01
 -13.268  0.2798E+00  0.1790E+01
 -13.258  0.2776E+00  0.1793E+01
 -13.248  0.2755E+00  0.1796E+01
 -13.238  0.2734E+00  0.1798E+01
 -13.228  0.2712E+00  0.1801E+01
 -13.218  0.2691E+00  0.1804E+01
 -13.208  0.2669E+00  0.1806E+01
 -13.198  0.2648E+00  0.1809E+01
 -13.188  0.2627E+00  0.1812E+01
 -13.178  0.2605E+00  0.1814E+01
 -13.168  0.2584E+00  0.1817E+01
 -13.158  0.2562E+00  0.1820E+01
 -13.148  0.2540E+00  0.1822E+01
 -13.138  0.2519E+00  0.1825E+01
 -13.128  0.2497E+00  0.1827E+01
 -13.118  0.2475E+00  0.1830E+01
 -13.108  0.2453E+00  0.1832E+01
 -13.098  0.2430E+00  0.1835E+01
 -13.088  0.2408E+00  0.1837E+01
 -13.078  0.2386E+00  0.1839E+01
 -13.068  0.2363E+00  0.1842E+01
 -13.058  0.2341E+00  0.1844E+01
 -13.048  0.2318E+00  0.1846E+01
 -13.038  0.2295E+00  0.1849E+01
 -13.028  0.2272E+00  0.1851E+01
 -13.018  0.2249E+00  0.1853E+01
 -13.008  0.2226E+00  0.1855E+01
 -12.998  0.2203E+00  0.1858E+01
 -12.988  0.2180E+00  0.1860E+01
 -12.978  0.2156E+00  0.1862E+01
 -12.968  0.2133E+00  0.1864E+01
 -12.958  0.2359E+00  0.1866E+01
 -12.948  0.2594E+00  0.1869E+01
 -12.938  0.2885E+00  0.1872E+01
 -12.928  0.2948E+00  0.1875E+01
 -12.918  0.3290E+00  0.1878E+01
 -12.908  0.3965E+00  0.1881E+01
 -12.898  0.4479E+00  0.1885E+01
 -12.888  0.5042E+00  0.1890E+01
 -12.878  0.5560E+00  0.1896E+01
 -12.868  0.5473E+00  0.1901E+01
 -12.858  0.4826E+00  0.1906E+01
 -12.848  0.4126E+00  0.1911E+01
 -12.838  0.3471E+00  0.1915E+01
 -12.828  0.2828E+00  0.1918E+01
 -12.818  0.2191E+00  0.1920E+01
 -12.808  0.1710E+00  0.1922E+01
 -12.798  0.1478E+00  0.1924E+01
 -12.788  0.1297E+00  0.1925E+01
 -12.778  0.1165E+00  0.1926E+01
 -12.768  0.1083E+00  0.1927E+01
 -12.758  0.1051E+00  0.1929E+01
 -12.748  0.1051E+00  0.1930E+01
 -12.738  0.1049E+00  0.1931E+01
 -12.728  0.1044E+00  0.1932E+01
 -12.718  0.1039E+00  0.1933E+01
 -12.708  0.1033E+00  0.1934E+01
 -12.698  0.1028E+00  0.1935E+01
 -12.688  0.1022E+00  0.1936E+01
 -12.678  0.1017E+00  0.1937E+01
 -12.668  0.1011E+00  0.1938E+01
 -12.658  0.1006E+00  0.1939E+01
 -12.648  0.1000E+00  0.1940E+01
 -12.638  0.9945E-01  0.1941E+01
 -12.628  0.9889E-01  0.1942E+01
 -12.618  0.9833E-01  0.1943E+01
 -12.608  0.9778E-01  0.1944E+01
 -12.598  0.9725E-01  0.1945E+01
 -12.588  0.9673E-01  0.1946E+01
 -12.578  0.9622E-01  0.1947E+01
 -12.568  0.9572E-01  0.1948E+01
 -12.558  0.9524E-01  0.1949E+01
 -12.548  0.9477E-01  0.1950E+01
 -12.538  0.9432E-01  0.1951E+01
 -12.528  0.9424E-01  0.1951E+01
 -12.518  0.9530E-01  0.1952E+01
 -12.508  0.9644E-01  0.1953E+01
 -12.498  0.9756E-01  0.1954E+01
 -12.488  0.9873E-01  0.1955E+01
 -12.478  0.9995E-01  0.1956E+01
 -12.468  0.1012E+00  0.1957E+01
 -12.458  0.1026E+00  0.1958E+01
 -12.448  0.1048E+00  0.1959E+01
 -12.438  0.1094E+00  0.1960E+01
 -12.428  0.1139E+00  0.1962E+01
 -12.418  0.1183E+00  0.1963E+01
 -12.408  0.1227E+00  0.1964E+01
 -12.398  0.1269E+00  0.1965E+01
 -12.388  0.1311E+00  0.1966E+01
 -12.378  0.1353E+00  0.1968E+01
 -12.368  0.1394E+00  0.1969E+01
 -12.358  0.1433E+00  0.1971E+01
 -12.348  0.1473E+00  0.1972E+01
 -12.338  0.1511E+00  0.1974E+01
 -12.328  0.1549E+00  0.1975E+01
 -12.318  0.1586E+00  0.1977E+01
 -12.308  0.1622E+00  0.1978E+01
 -12.298  0.1658E+00  0.1980E+01
 -12.288  0.1693E+00  0.1982E+01
 -12.278  0.1727E+00  0.1983E+01
 -12.268  0.1760E+00  0.1985E+01
 -12.258  0.1793E+00  0.1987E+01
 -12.248  0.1825E+00  0.1989E+01
 -12.238  0.1857E+00  0.1990E+01
 -12.228  0.1888E+00  0.1992E+01
 -12.218  0.1918E+00  0.1994E+01
 -12.208  0.1948E+00  0.1996E+01
 -12.198  0.1978E+00  0.1998E+01
 -12.188  0.2008E+00  0.2000E+01
 -12.178  0.2037E+00  0.2002E+01
 -12.168  0.2067E+00  0.2004E+01
 -12.158  0.2096E+00  0.2006E+01
 -12.148  0.2125E+00  0.2008E+01
 -12.138  0.2155E+00  0.2011E+01
 -12.128  0.2184E+00  0.2013E+01
 -12.118  0.2232E+00  0.2015E+01
 -12.108  0.2295E+00  0.2017E+01
 -12.098  0.2357E+00  0.2019E+01
 -12.088  0.2427E+00  0.2022E+01
 -12.078  0.2513E+00  0.2024E+01
 -12.068  0.2627E+00  0.2027E+01
 -12.058  0.2769E+00  0.2030E+01
 -12.048  0.2940E+00  0.2032E+01
 -12.038  0.3371E+00  0.2036E+01
 -12.028  0.4266E+00  0.2039E+01
 -12.018  0.5036E+00  0.2044E+01
 -12.008  0.5679E+00  0.2049E+01
 -11.998  0.6197E+00  0.2055E+01
 -11.988  0.6545E+00  0.2062E+01
 -11.978  0.6686E+00  0.2068E+01
 -11.968  0.6616E+00  0.2075E+01
 -11.958  0.6336E+00  0.2082E+01
 -11.948  0.5846E+00  0.2088E+01
 -11.938  0.5190E+00  0.2093E+01
 -11.928  0.5186E+00  0.2098E+01
 -11.918  0.5127E+00  0.2103E+01
 -11.908  0.5013E+00  0.2109E+01
 -11.898  0.4845E+00  0.2114E+01
 -11.888  0.4621E+00  0.2118E+01
 -11.878  0.4343E+00  0.2123E+01
 -11.868  0.4010E+00  0.2127E+01
 -11.858  0.3623E+00  0.2131E+01
 -11.848  0.3183E+00  0.2134E+01
 -11.838  0.2857E+00  0.2137E+01
 -11.828  0.2745E+00  0.2140E+01
 -11.818  0.2795E+00  0.2143E+01
 -11.808  0.2854E+00  0.2146E+01
 -11.798  0.2914E+00  0.2148E+01
 -11.788  0.2981E+00  0.2151E+01
 -11.778  0.3064E+00  0.2154E+01
 -11.768  0.3165E+00  0.2157E+01
 -11.758  0.3267E+00  0.2161E+01
 -11.748  0.3362E+00  0.2164E+01
 -11.738  0.3435E+00  0.2167E+01
 -11.728  0.3485E+00  0.2171E+01
 -11.718  0.3530E+00  0.2174E+01
 -11.708  0.3574E+00  0.2178E+01
 -11.698  0.3618E+00  0.2182E+01
 -11.688  0.3662E+00  0.2185E+01
 -11.678  0.3706E+00  0.2189E+01
 -11.668  0.3749E+00  0.2193E+01
 -11.658  0.3791E+00  0.2196E+01
 -11.648  0.3834E+00  0.2200E+01
 -11.638  0.3876E+00  0.2204E+01
 -11.628  0.3917E+00  0.2208E+01
 -11.618  0.3959E+00  0.2212E+01
 -11.608  0.4000E+00  0.2216E+01
 -11.598  0.4041E+00  0.2220E+01
 -11.588  0.4087E+00  0.2224E+01
 -11.578  0.4134E+00  0.2228E+01
 -11.568  0.4182E+00  0.2232E+01
 -11.558  0.4233E+00  0.2236E+01
 -11.548  0.4285E+00  0.2241E+01
 -11.538  0.4336E+00  0.2245E+01
 -11.528  0.4387E+00  0.2249E+01
 -11.518  0.4438E+00  0.2254E+01
 -11.508  0.4489E+00  0.2258E+01
 -11.498  0.4540E+00  0.2263E+01
 -11.488  0.4590E+00  0.2267E+01
 -11.478  0.4640E+00  0.2272E+01
 -11.468  0.4690E+00  0.2277E+01
 -11.458  0.4740E+00  0.2281E+01
 -11.448  0.4789E+00  0.2286E+01
 -11.438  0.4839E+00  0.2291E+01
 -11.428  0.4888E+00  0.2296E+01
 -11.418  0.4937E+00  0.2301E+01
 -11.408  0.4985E+00  0.2306E+01
 -11.398  0.5033E+00  0.2311E+01
 -11.388  0.5081E+00  0.2316E+01
 -11.378  0.5129E+00  0.2321E+01
 -11.368  0.5176E+00  0.2326E+01
 -11.358  0.5224E+00  0.2331E+01
 -11.348  0.5271E+00  0.2336E+01
 -11.338  0.5317E+00  0.2342E+01
 -11.328  0.5364E+00  0.2347E+01
 -11.318  0.5410E+00  0.2352E+01
 -11.308  0.5456E+00  0.2358E+01
 -11.298  0.5501E+00  0.2363E+01
 -11.288  0.5547E+00  0.2369E+01
 -11.278  0.5592E+00  0.2374E+01
 -11.268  0.5623E+00  0.2380E+01
 -11.258  0.5613E+00  0.2386E+01
 -11.248  0.5562E+00  0.2391E+01
 -11.238  0.5468E+00  0.2397E+01
 -11.228  0.5333E+00  0.2402E+01
 -11.218  0.5169E+00  0.2407E+01
 -11.208  0.4977E+00  0.2412E+01
 -11.198  0.4745E+00  0.2417E+01
 -11.188  0.4476E+00  0.2422E+01
 -11.178  0.4175E+00  0.2426E+01
 -11.168  0.3864E+00  0.2430E+01
 -11.158  0.3667E+00  0.2434E+01
 -11.148  0.3572E+00  0.2438E+01
 -11.138  0.3572E+00  0.2441E+01
 -11.128  0.3598E+00  0.2445E+01
 -11.118  0.3624E+00  0.2448E+01
 -11.108  0.3649E+00  0.2452E+01
 -11.098  0.3681E+00  0.2456E+01
 -11.088  0.3722E+00  0.2459E+01
 -11.078  0.3768E+00  0.2463E+01
 -11.068  0.3846E+00  0.2467E+01
 -11.058  0.3966E+00  0.2471E+01
 -11.048  0.3888E+00  0.2475E+01
 -11.038  0.3716E+00  0.2479E+01
 -11.028  0.3587E+00  0.2482E+01
 -11.018  0.3501E+00  0.2486E+01
 -11.008  0.3459E+00  0.2489E+01
 -10.998  0.3459E+00  0.2493E+01
 -10.988  0.3462E+00  0.2496E+01
 -10.978  0.3449E+00  0.2500E+01
 -10.968  0.3426E+00  0.2503E+01
 -10.958  0.3403E+00  0.2506E+01
 -10.948  0.3385E+00  0.2510E+01
 -10.938  0.3374E+00  0.2513E+01
 -10.928  0.3363E+00  0.2517E+01
 -10.918  0.3353E+00  0.2520E+01
 -10.908  0.3343E+00  0.2523E+01
 -10.898  0.3335E+00  0.2527E+01
 -10.888  0.3333E+00  0.2530E+01
 -10.878  0.3325E+00  0.2533E+01
 -10.868  0.3307E+00  0.2537E+01
 -10.858  0.3289E+00  0.2540E+01
 -10.848  0.3272E+00  0.2543E+01
 -10.838  0.3256E+00  0.2547E+01
 -10.828  0.3239E+00  0.2550E+01
 -10.818  0.3223E+00  0.2553E+01
 -10.808  0.3207E+00  0.2556E+01
 -10.798  0.3192E+00  0.2559E+01
 -10.788  0.3177E+00  0.2563E+01
 -10.778  0.3162E+00  0.2566E+01
 -10.768  0.3148E+00  0.2569E+01
 -10.758  0.3134E+00  0.2572E+01
 -10.748  0.3120E+00  0.2575E+01
 -10.738  0.3106E+00  0.2578E+01
 -10.728  0.3093E+00  0.2581E+01
 -10.718  0.3079E+00  0.2584E+01
 -10.708  0.3065E+00  0.2588E+01
 -10.698  0.3051E+00  0.2591E+01
 -10.688  0.3037E+00  0.2594E+01
 -10.678  0.3023E+00  0.2597E+01
 -10.668  0.3009E+00  0.2600E+01
 -10.658  0.2995E+00  0.2603E+01
 -10.648  0.2980E+00  0.2606E+01
 -10.638  0.2965E+00  0.2609E+01
 -10.628  0.2949E+00  0.2612E+01
 -10.618  0.2933E+00  0.2615E+01
 -10.608  0.2925E+00  0.2617E+01
 -10.598  0.2931E+00  0.2620E+01
 -10.588  0.2943E+00  0.2623E+01
 -10.578  0.2958E+00  0.2626E+01
 -10.568  0.2979E+00  0.2629E+01
 -10.558  0.3004E+00  0.2632E+01
 -10.548  0.3030E+00  0.2635E+01
 -10.538  0.3055E+00  0.2638E+01
 -10.528  0.3070E+00  0.2641E+01
 -10.518  0.3076E+00  0.2644E+01
 -10.508  0.3086E+00  0.2648E+01
 -10.498  0.3101E+00  0.2651E+01
 -10.488  0.3099E+00  0.2654E+01
 -10.478  0.3087E+00  0.2657E+01
 -10.468  0.3075E+00  0.2660E+01
 -10.458  0.3063E+00  0.2663E+01
 -10.448  0.3051E+00  0.2666E+01
 -10.438  0.3039E+00  0.2669E+01
 -10.428  0.3028E+00  0.2672E+01
 -10.418  0.3017E+00  0.2675E+01
 -10.408  0.3006E+00  0.2678E+01
 -10.398  0.2996E+00  0.2681E+01
 -10.388  0.2985E+00  0.2684E+01
 -10.378  0.2975E+00  0.2687E+01
 -10.368  0.2965E+00  0.2690E+01
 -10.358  0.2955E+00  0.2693E+01
 -10.348  0.2945E+00  0.2696E+01
 -10.338  0.2935E+00  0.2699E+01
 -10.328  0.2925E+00  0.2702E+01
 -10.318  0.2916E+00  0.2705E+01
 -10.308  0.2906E+00  0.2708E+01
 -10.298  0.2896E+00  0.2711E+01
 -10.288  0.2887E+00  0.2713E+01
 -10.278  0.2877E+00  0.2716E+01
 -10.268  0.2868E+00  0.2719E+01
 -10.258  0.2858E+00  0.2722E+01
 -10.248  0.2849E+00  0.2725E+01
 -10.238  0.2839E+00  0.2728E+01
 -10.228  0.2830E+00  0.2731E+01
 -10.218  0.2821E+00  0.2733E+01
 -10.208  0.2812E+00  0.2736E+01
 -10.198  0.2803E+00  0.2739E+01
 -10.188  0.2794E+00  0.2742E+01
 -10.178  0.2785E+00  0.2745E+01
 -10.168  0.2776E+00  0.2747E+01
 -10.158  0.2767E+00  0.2750E+01
 -10.148  0.2758E+00  0.2753E+01
 -10.138  0.2749E+00  0.2756E+01
 -10.128  0.2741E+00  0.2758E+01
 -10.118  0.2732E+00  0.2761E+01
 -10.108  0.2724E+00  0.2764E+01
 -10.098  0.2715E+00  0.2767E+01
 -10.088  0.2707E+00  0.2769E+01
 -10.078  0.2698E+00  0.2772E+01
 -10.068  0.2690E+00  0.2775E+01
 -10.058  0.2682E+00  0.2777E+01
 -10.048  0.2674E+00  0.2780E+01
 -10.038  0.2666E+00  0.2783E+01
 -10.028  0.2657E+00  0.2785E+01
 -10.018  0.2649E+00  0.2788E+01
 -10.008  0.2642E+00  0.2791E+01
  -9.998  0.2634E+00  0.2793E+01
  -9.988  0.2626E+00  0.2796E+01
  -9.978  0.2618E+00  0.2799E+01
  -9.968  0.2610E+00  0.2801E+01
  -9.958  0.2603E+00  0.2804E+01
  -9.948  0.2595E+00  0.2806E+01
  -9.938  0.2588E+00  0.2809E+01
  -9.928  0.2580E+00  0.2812E+01
  -9.918  0.2573E+00  0.2814E+01
  -9.908  0.2565E+00  0.2817E+01
  -9.898  0.2558E+00  0.2819E+01
  -9.888  0.2551E+00  0.2822E+01
  -9.878  0.2544E+00  0.2824E+01
  -9.868  0.2538E+00  0.2827E+01
  -9.858  0.2532E+00  0.2830E+01
  -9.848  0.2526E+00  0.2832E+01
  -9.838  0.2520E+00  0.2835E+01
  -9.828  0.2514E+00  0.2837E+01
  -9.818  0.2510E+00  0.2840E+01
  -9.808  0.2516E+00  0.2842E+01
  -9.798  0.2535E+00  0.2845E+01
  -9.788  0.2563E+00  0.2847E+01
  -9.778  0.2606E+00  0.2850E+01
  -9.768  0.2640E+00  0.2852E+01
  -9.758  0.2671E+00  0.2855E+01
  -9.748  0.2691E+00  0.2858E+01
  -9.738  0.2712E+00  0.2860E+01
  -9.728  0.2732E+00  0.2863E+01
  -9.718  0.2752E+00  0.2866E+01
  -9.708  0.2772E+00  0.2869E+01
  -9.698  0.2796E+00  0.2871E+01
  -9.688  0.2819E+00  0.2874E+01
  -9.678  0.2843E+00  0.2877E+01
  -9.668  0.2866E+00  0.2880E+01
  -9.658  0.2888E+00  0.2883E+01
  -9.648  0.2917E+00  0.2886E+01
  -9.638  0.2945E+00  0.2889E+01
  -9.628  0.2973E+00  0.2892E+01
  -9.618  0.3003E+00  0.2895E+01
  -9.608  0.3043E+00  0.2898E+01
  -9.598  0.3084E+00  0.2901E+01
  -9.588  0.3122E+00  0.2904E+01
  -9.578  0.3142E+00  0.2907E+01
  -9.568  0.3162E+00  0.2910E+01
  -9.558  0.3181E+00  0.2913E+01
  -9.548  0.3200E+00  0.2916E+01
  -9.538  0.3219E+00  0.2920E+01
  -9.528  0.3237E+00  0.2923E+01
  -9.518  0.3255E+00  0.2926E+01
  -9.508  0.3273E+00  0.2929E+01
  -9.498  0.3290E+00  0.2933E+01
  -9.488  0.3306E+00  0.2936E+01
  -9.478  0.3323E+00  0.2939E+01
  -9.468  0.3339E+00  0.2943E+01
  -9.458  0.3355E+00  0.2946E+01
  -9.448  0.3371E+00  0.2949E+01
  -9.438  0.3386E+00  0.2953E+01
  -9.428  0.3401E+00  0.2956E+01
  -9.418  0.3416E+00  0.2960E+01
  -9.408  0.3430E+00  0.2963E+01
  -9.398  0.3445E+00  0.2966E+01
  -9.388  0.3459E+00  0.2970E+01
  -9.378  0.3472E+00  0.2973E+01
  -9.368  0.3486E+00  0.2977E+01
  -9.358  0.3499E+00  0.2980E+01
  -9.348  0.3512E+00  0.2984E+01
  -9.338  0.3525E+00  0.2987E+01
  -9.328  0.3537E+00  0.2991E+01
  -9.318  0.3549E+00  0.2994E+01
  -9.308  0.3561E+00  0.2998E+01
  -9.298  0.3573E+00  0.3001E+01
  -9.288  0.3584E+00  0.3005E+01
  -9.278  0.3595E+00  0.3009E+01
  -9.268  0.3606E+00  0.3012E+01
  -9.258  0.3617E+00  0.3016E+01
  -9.248  0.3627E+00  0.3019E+01
  -9.238  0.3637E+00  0.3023E+01
  -9.228  0.3647E+00  0.3027E+01
  -9.218  0.3656E+00  0.3030E+01
  -9.208  0.3665E+00  0.3034E+01
  -9.198  0.3674E+00  0.3038E+01
  -9.188  0.3683E+00  0.3041E+01
  -9.178  0.3691E+00  0.3045E+01
  -9.168  0.3699E+00  0.3049E+01
  -9.158  0.3707E+00  0.3053E+01
  -9.148  0.3715E+00  0.3056E+01
  -9.138  0.3722E+00  0.3060E+01
  -9.128  0.3729E+00  0.3064E+01
  -9.118  0.3736E+00  0.3067E+01
  -9.108  0.3742E+00  0.3071E+01
  -9.098  0.3749E+00  0.3075E+01
  -9.088  0.3755E+00  0.3079E+01
  -9.078  0.3760E+00  0.3082E+01
  -9.068  0.3766E+00  0.3086E+01
  -9.058  0.3771E+00  0.3090E+01
  -9.048  0.3776E+00  0.3094E+01
  -9.038  0.3780E+00  0.3097E+01
  -9.028  0.3785E+00  0.3101E+01
  -9.018  0.3789E+00  0.3105E+01
  -9.008  0.3786E+00  0.3109E+01
  -8.998  0.3788E+00  0.3113E+01
  -8.988  0.3793E+00  0.3116E+01
  -8.978  0.3799E+00  0.3120E+01
  -8.968  0.3807E+00  0.3124E+01
  -8.958  0.3838E+00  0.3128E+01
  -8.948  0.3869E+00  0.3132E+01
  -8.938  0.3902E+00  0.3136E+01
  -8.928  0.3932E+00  0.3139E+01
  -8.918  0.3931E+00  0.3143E+01
  -8.908  0.3899E+00  0.3147E+01
  -8.898  0.3891E+00  0.3151E+01
  -8.888  0.3971E+00  0.3155E+01
  -8.878  0.3920E+00  0.3159E+01
  -8.868  0.3870E+00  0.3163E+01
  -8.858  0.3930E+00  0.3167E+01
  -8.848  0.3910E+00  0.3171E+01
  -8.838  0.3892E+00  0.3175E+01
  -8.828  0.3886E+00  0.3179E+01
  -8.818  0.3887E+00  0.3182E+01
  -8.808  0.3888E+00  0.3186E+01
  -8.798  0.3888E+00  0.3190E+01
  -8.788  0.3889E+00  0.3194E+01
  -8.778  0.3890E+00  0.3198E+01
  -8.768  0.3899E+00  0.3202E+01
  -8.758  0.3901E+00  0.3206E+01
  -8.748  0.3896E+00  0.3210E+01
  -8.738  0.3890E+00  0.3214E+01
  -8.728  0.3885E+00  0.3218E+01
  -8.718  0.3886E+00  0.3221E+01
  -8.708  0.3887E+00  0.3225E+01
  -8.698  0.3888E+00  0.3229E+01
  -8.688  0.3889E+00  0.3233E+01
  -8.678  0.3891E+00  0.3237E+01
  -8.668  0.3892E+00  0.3241E+01
  -8.658  0.3893E+00  0.3245E+01
  -8.648  0.3894E+00  0.3249E+01
  -8.638  0.3896E+00  0.3253E+01
  -8.628  0.3906E+00  0.3256E+01
  -8.618  0.3925E+00  0.3260E+01
  -8.608  0.3944E+00  0.3264E+01
  -8.598  0.3964E+00  0.3268E+01
  -8.588  0.3982E+00  0.3272E+01
  -8.578  0.3993E+00  0.3276E+01
  -8.568  0.4003E+00  0.3280E+01
  -8.558  0.3961E+00  0.3284E+01
  -8.548  0.3923E+00  0.3288E+01
  -8.538  0.3891E+00  0.3292E+01
  -8.528  0.3862E+00  0.3296E+01
  -8.518  0.3840E+00  0.3300E+01
  -8.508  0.3827E+00  0.3304E+01
  -8.498  0.3816E+00  0.3307E+01
  -8.488  0.3809E+00  0.3311E+01
  -8.478  0.3805E+00  0.3315E+01
  -8.468  0.3804E+00  0.3319E+01
  -8.458  0.3805E+00  0.3323E+01
  -8.448  0.3806E+00  0.3326E+01
  -8.438  0.3808E+00  0.3330E+01
  -8.428  0.3809E+00  0.3334E+01
  -8.418  0.3810E+00  0.3338E+01
  -8.408  0.3812E+00  0.3342E+01
  -8.398  0.3813E+00  0.3345E+01
  -8.388  0.3814E+00  0.3349E+01
  -8.378  0.3816E+00  0.3353E+01
  -8.368  0.3817E+00  0.3357E+01
  -8.358  0.3819E+00  0.3361E+01
  -8.348  0.3820E+00  0.3365E+01
  -8.338  0.3822E+00  0.3368E+01
  -8.328  0.3823E+00  0.3372E+01
  -8.318  0.3825E+00  0.3376E+01
  -8.308  0.3827E+00  0.3380E+01
  -8.298  0.3828E+00  0.3384E+01
  -8.288  0.3830E+00  0.3388E+01
  -8.278  0.3832E+00  0.3391E+01
  -8.268  0.3833E+00  0.3395E+01
  -8.258  0.3835E+00  0.3399E+01
  -8.248  0.3836E+00  0.3403E+01
  -8.238  0.3838E+00  0.3407E+01
  -8.228  0.3840E+00  0.3411E+01
  -8.218  0.3842E+00  0.3414E+01
  -8.208  0.3844E+00  0.3418E+01
  -8.198  0.3847E+00  0.3422E+01
  -8.188  0.3850E+00  0.3426E+01
  -8.178  0.3853E+00  0.3430E+01
  -8.168  0.3832E+00  0.3434E+01
  -8.158  0.3814E+00  0.3437E+01
  -8.148  0.3803E+00  0.3441E+01
  -8.138  0.3792E+00  0.3445E+01
  -8.128  0.3790E+00  0.3449E+01
  -8.118  0.3792E+00  0.3453E+01
  -8.108  0.3797E+00  0.3456E+01
  -8.098  0.3802E+00  0.3460E+01
  -8.088  0.3807E+00  0.3464E+01
  -8.078  0.3812E+00  0.3468E+01
  -8.068  0.3818E+00  0.3472E+01
  -8.058  0.3823E+00  0.3475E+01
  -8.048  0.3828E+00  0.3479E+01
  -8.038  0.3833E+00  0.3483E+01
  -8.028  0.3838E+00  0.3487E+01
  -8.018  0.3843E+00  0.3491E+01
  -8.008  0.3848E+00  0.3495E+01
  -7.998  0.3853E+00  0.3498E+01
  -7.988  0.3858E+00  0.3502E+01
  -7.978  0.3863E+00  0.3506E+01
  -7.968  0.3868E+00  0.3510E+01
  -7.958  0.3873E+00  0.3514E+01
  -7.948  0.3879E+00  0.3518E+01
  -7.938  0.3884E+00  0.3522E+01
  -7.928  0.3889E+00  0.3526E+01
  -7.918  0.3894E+00  0.3529E+01
  -7.908  0.3899E+00  0.3533E+01
  -7.898  0.3904E+00  0.3537E+01
  -7.888  0.3909E+00  0.3541E+01
  -7.878  0.3914E+00  0.3545E+01
  -7.868  0.3919E+00  0.3549E+01
  -7.858  0.3924E+00  0.3553E+01
  -7.848  0.3929E+00  0.3557E+01
  -7.838  0.3934E+00  0.3561E+01
  -7.828  0.3939E+00  0.3565E+01
  -7.818  0.3944E+00  0.3569E+01
  -7.808  0.3949E+00  0.3573E+01
  -7.798  0.3954E+00  0.3577E+01
  -7.788  0.3959E+00  0.3581E+01
  -7.778  0.3964E+00  0.3584E+01
  -7.768  0.3969E+00  0.3588E+01
  -7.758  0.3974E+00  0.3592E+01
  -7.748  0.3979E+00  0.3596E+01
  -7.738  0.3984E+00  0.3600E+01
  -7.728  0.3989E+00  0.3604E+01
  -7.718  0.3994E+00  0.3608E+01
  -7.708  0.3999E+00  0.3612E+01
  -7.698  0.4004E+00  0.3616E+01
  -7.688  0.4009E+00  0.3620E+01
  -7.678  0.4014E+00  0.3624E+01
  -7.668  0.4019E+00  0.3628E+01
  -7.658  0.4024E+00  0.3632E+01
  -7.648  0.4029E+00  0.3636E+01
  -7.638  0.4037E+00  0.3640E+01
  -7.628  0.4039E+00  0.3645E+01
  -7.618  0.4040E+00  0.3649E+01
  -7.608  0.4046E+00  0.3653E+01
  -7.598  0.4049E+00  0.3657E+01
  -7.588  0.4039E+00  0.3661E+01
  -7.578  0.4032E+00  0.3665E+01
  -7.568  0.4027E+00  0.3669E+01
  -7.558  0.4023E+00  0.3673E+01
  -7.548  0.4027E+00  0.3677E+01
  -7.538  0.4031E+00  0.3681E+01
  -7.528  0.4034E+00  0.3685E+01
  -7.518  0.4038E+00  0.3689E+01
  -7.508  0.4042E+00  0.3693E+01
  -7.498  0.4045E+00  0.3697E+01
  -7.488  0.4048E+00  0.3701E+01
  -7.478  0.4051E+00  0.3705E+01
  -7.468  0.4053E+00  0.3709E+01
  -7.458  0.4055E+00  0.3713E+01
  -7.448  0.4058E+00  0.3717E+01
  -7.438  0.4061E+00  0.3721E+01
  -7.428  0.4062E+00  0.3725E+01
  -7.418  0.4062E+00  0.3729E+01
  -7.408  0.4060E+00  0.3733E+01
  -7.398  0.4025E+00  0.3738E+01
  -7.388  0.3965E+00  0.3742E+01
  -7.378  0.3910E+00  0.3745E+01
  -7.368  0.3896E+00  0.3749E+01
  -7.358  0.3928E+00  0.3753E+01
  -7.348  0.3959E+00  0.3757E+01
  -7.338  0.3988E+00  0.3761E+01
  -7.328  0.4015E+00  0.3765E+01
  -7.318  0.4045E+00  0.3769E+01
  -7.308  0.4074E+00  0.3773E+01
  -7.298  0.4102E+00  0.3777E+01
  -7.288  0.4128E+00  0.3781E+01
  -7.278  0.4152E+00  0.3786E+01
  -7.268  0.4174E+00  0.3790E+01
  -7.258  0.4195E+00  0.3794E+01
  -7.248  0.4213E+00  0.3798E+01
  -7.238  0.4230E+00  0.3802E+01
  -7.228  0.4220E+00  0.3807E+01
  -7.218  0.4215E+00  0.3811E+01
  -7.208  0.4219E+00  0.3815E+01
  -7.198  0.4189E+00  0.3819E+01
  -7.188  0.4167E+00  0.3823E+01
  -7.178  0.4158E+00  0.3828E+01
  -7.168  0.4158E+00  0.3832E+01
  -7.158  0.4157E+00  0.3836E+01
  -7.148  0.4164E+00  0.3840E+01
  -7.138  0.4173E+00  0.3844E+01
  -7.128  0.4182E+00  0.3848E+01
  -7.118  0.4192E+00  0.3853E+01
  -7.108  0.4200E+00  0.3857E+01
  -7.098  0.4209E+00  0.3861E+01
  -7.088  0.4218E+00  0.3865E+01
  -7.078  0.4227E+00  0.3869E+01
  -7.068  0.4236E+00  0.3874E+01
  -7.058  0.4245E+00  0.3878E+01
  -7.048  0.4255E+00  0.3882E+01
  -7.038  0.4264E+00  0.3886E+01
  -7.028  0.4273E+00  0.3891E+01
  -7.018  0.4282E+00  0.3895E+01
  -7.008  0.4291E+00  0.3899E+01
  -6.998  0.4300E+00  0.3904E+01
  -6.988  0.4309E+00  0.3908E+01
  -6.978  0.4319E+00  0.3912E+01
  -6.968  0.4328E+00  0.3916E+01
  -6.958  0.4337E+00  0.3921E+01
  -6.948  0.4347E+00  0.3925E+01
  -6.938  0.4356E+00  0.3930E+01
  -6.928  0.4365E+00  0.3934E+01
  -6.918  0.4375E+00  0.3938E+01
  -6.908  0.4384E+00  0.3943E+01
  -6.898  0.4394E+00  0.3947E+01
  -6.888  0.4403E+00  0.3951E+01
  -6.878  0.4413E+00  0.3956E+01
  -6.868  0.4426E+00  0.3960E+01
  -6.858  0.4438E+00  0.3965E+01
  -6.848  0.4451E+00  0.3969E+01
  -6.838  0.4464E+00  0.3974E+01
  -6.828  0.4476E+00  0.3978E+01
  -6.818  0.4492E+00  0.3983E+01
  -6.808  0.4505E+00  0.3987E+01
  -6.798  0.4518E+00  0.3992E+01
  -6.788  0.4531E+00  0.3996E+01
  -6.778  0.4549E+00  0.4001E+01
  -6.768  0.4585E+00  0.4005E+01
  -6.758  0.4639E+00  0.4010E+01
  -6.748  0.4884E+00  0.4014E+01
  -6.738  0.5270E+00  0.4020E+01
  -6.728  0.5626E+00  0.4025E+01
  -6.718  0.5939E+00  0.4031E+01
  -6.708  0.6219E+00  0.4037E+01
  -6.698  0.6486E+00  0.4043E+01
  -6.688  0.6737E+00  0.4050E+01
  -6.678  0.6972E+00  0.4057E+01
  -6.668  0.7191E+00  0.4064E+01
  -6.658  0.7399E+00  0.4071E+01
  -6.648  0.7667E+00  0.4079E+01
  -6.638  0.7802E+00  0.4086E+01
  -6.628  0.7870E+00  0.4094E+01
  -6.618  0.7918E+00  0.4102E+01
  -6.608  0.7951E+00  0.4110E+01
  -6.598  0.7960E+00  0.4118E+01
  -6.588  0.8052E+00  0.4126E+01
  -6.578  0.7767E+00  0.4134E+01
  -6.568  0.7034E+00  0.4141E+01
  -6.558  0.6908E+00  0.4148E+01
  -6.548  0.6843E+00  0.4155E+01
  -6.538  0.6775E+00  0.4162E+01
  -6.528  0.6749E+00  0.4169E+01
  -6.518  0.6763E+00  0.4175E+01
  -6.508  0.6778E+00  0.4182E+01
  -6.498  0.6795E+00  0.4189E+01
  -6.488  0.6814E+00  0.4196E+01
  -6.478  0.6839E+00  0.4203E+01
  -6.468  0.6872E+00  0.4210E+01
  -6.458  0.6915E+00  0.4216E+01
  -6.448  0.6960E+00  0.4223E+01
  -6.438  0.7006E+00  0.4230E+01
  -6.428  0.7052E+00  0.4237E+01
  -6.418  0.7098E+00  0.4244E+01
  -6.408  0.7145E+00  0.4252E+01
  -6.398  0.7192E+00  0.4259E+01
  -6.388  0.7240E+00  0.4266E+01
  -6.378  0.7289E+00  0.4273E+01
  -6.368  0.7338E+00  0.4281E+01
  -6.358  0.7388E+00  0.4288E+01
  -6.348  0.7439E+00  0.4295E+01
  -6.338  0.7492E+00  0.4303E+01
  -6.328  0.7546E+00  0.4310E+01
  -6.318  0.7602E+00  0.4318E+01
  -6.308  0.7659E+00  0.4326E+01
  -6.298  0.7717E+00  0.4333E+01
  -6.288  0.7777E+00  0.4341E+01
  -6.278  0.7839E+00  0.4349E+01
  -6.268  0.7902E+00  0.4357E+01
  -6.258  0.7966E+00  0.4365E+01
  -6.248  0.8032E+00  0.4373E+01
  -6.238  0.8099E+00  0.4381E+01
  -6.228  0.8167E+00  0.4389E+01
  -6.218  0.8236E+00  0.4397E+01
  -6.208  0.8300E+00  0.4405E+01
  -6.198  0.8364E+00  0.4414E+01
  -6.188  0.8424E+00  0.4422E+01
  -6.178  0.8357E+00  0.4430E+01
  -6.168  0.8220E+00  0.4439E+01
  -6.158  0.8130E+00  0.4447E+01
  -6.148  0.8044E+00  0.4455E+01
  -6.138  0.7959E+00  0.4463E+01
  -6.128  0.7956E+00  0.4471E+01
  -6.118  0.8011E+00  0.4479E+01
  -6.108  0.8063E+00  0.4487E+01
  -6.098  0.8113E+00  0.4495E+01
  -6.088  0.8161E+00  0.4503E+01
  -6.078  0.8206E+00  0.4511E+01
  -6.068  0.8264E+00  0.4520E+01
  -6.058  0.8318E+00  0.4528E+01
  -6.048  0.8275E+00  0.4536E+01
  -6.038  0.8283E+00  0.4544E+01
  -6.028  0.8552E+00  0.4553E+01
  -6.018  0.8948E+00  0.4562E+01
  -6.008  0.8970E+00  0.4571E+01
  -5.998  0.8997E+00  0.4580E+01
  -5.988  0.9023E+00  0.4589E+01
  -5.978  0.9062E+00  0.4598E+01
  -5.968  0.9136E+00  0.4607E+01
  -5.958  0.9197E+00  0.4616E+01
  -5.948  0.9199E+00  0.4625E+01
  -5.938  0.9211E+00  0.4634E+01
  -5.928  0.9245E+00  0.4643E+01
  -5.918  0.9333E+00  0.4653E+01
  -5.908  0.9444E+00  0.4662E+01
  -5.898  0.9554E+00  0.4672E+01
  -5.888  0.9662E+00  0.4681E+01
  -5.878  0.9765E+00  0.4691E+01
  -5.868  0.9844E+00  0.4701E+01
  -5.858  0.9895E+00  0.4711E+01
  -5.848  0.9922E+00  0.4721E+01
  -5.838  0.9943E+00  0.4730E+01
  -5.828  0.9967E+00  0.4740E+01
  -5.818  0.9995E+00  0.4750E+01
  -5.808  0.1003E+01  0.4760E+01
  -5.798  0.1006E+01  0.4770E+01
  -5.788  0.1010E+01  0.4781E+01
  -5.778  0.1014E+01  0.4791E+01
  -5.768  0.1019E+01  0.4801E+01
  -5.758  0.1023E+01  0.4811E+01
  -5.748  0.1027E+01  0.4821E+01
  -5.738  0.1032E+01  0.4832E+01
  -5.728  0.1036E+01  0.4842E+01
  -5.718  0.1041E+01  0.4852E+01
  -5.708  0.1046E+01  0.4863E+01
  -5.698  0.1050E+01  0.4873E+01
  -5.688  0.1049E+01  0.4884E+01
  -5.678  0.1046E+01  0.4894E+01
  -5.668  0.1043E+01  0.4905E+01
  -5.658  0.1044E+01  0.4915E+01
  -5.648  0.1046E+01  0.4926E+01
  -5.638  0.1048E+01  0.4936E+01
  -5.628  0.1051E+01  0.4947E+01
  -5.618  0.1059E+01  0.4957E+01
  -5.608  0.1067E+01  0.4968E+01
  -5.598  0.1074E+01  0.4978E+01
  -5.588  0.1081E+01  0.4989E+01
  -5.578  0.1087E+01  0.5000E+01
  -5.568  0.1093E+01  0.5011E+01
  -5.558  0.1097E+01  0.5022E+01
  -5.548  0.1106E+01  0.5033E+01
  -5.538  0.1129E+01  0.5044E+01
  -5.528  0.1130E+01  0.5055E+01
  -5.518  0.1154E+01  0.5067E+01
  -5.508  0.1248E+01  0.5079E+01
  -5.498  0.1340E+01  0.5092E+01
  -5.488  0.1434E+01  0.5105E+01
  -5.478  0.1525E+01  0.5120E+01
  -5.468  0.1612E+01  0.5136E+01
  -5.458  0.1685E+01  0.5152E+01
  -5.448  0.1707E+01  0.5170E+01
  -5.438  0.1647E+01  0.5186E+01
  -5.428  0.1473E+01  0.5202E+01
  -5.418  0.1255E+01  0.5216E+01
  -5.408  0.1042E+01  0.5227E+01
  -5.398  0.9956E+00  0.5237E+01
  -5.388  0.9678E+00  0.5247E+01
  -5.378  0.9500E+00  0.5257E+01
  -5.368  0.9468E+00  0.5266E+01
  -5.358  0.9471E+00  0.5276E+01
  -5.348  0.9354E+00  0.5285E+01
  -5.338  0.9237E+00  0.5294E+01
  -5.328  0.9118E+00  0.5303E+01
  -5.318  0.8999E+00  0.5312E+01
  -5.308  0.8877E+00  0.5321E+01
  -5.298  0.8766E+00  0.5330E+01
  -5.288  0.8715E+00  0.5339E+01
  -5.278  0.8667E+00  0.5348E+01
  -5.268  0.8621E+00  0.5356E+01
  -5.258  0.8579E+00  0.5365E+01
  -5.248  0.8540E+00  0.5373E+01
  -5.238  0.8504E+00  0.5382E+01
  -5.228  0.8470E+00  0.5390E+01
  -5.218  0.8440E+00  0.5399E+01
  -5.208  0.8411E+00  0.5407E+01
  -5.198  0.8385E+00  0.5416E+01
  -5.188  0.8360E+00  0.5424E+01
  -5.178  0.8336E+00  0.5432E+01
  -5.168  0.8314E+00  0.5441E+01
  -5.158  0.8294E+00  0.5449E+01
  -5.148  0.8275E+00  0.5457E+01
  -5.138  0.8258E+00  0.5466E+01
  -5.128  0.8242E+00  0.5474E+01
  -5.118  0.8228E+00  0.5482E+01
  -5.108  0.8214E+00  0.5490E+01
  -5.098  0.8198E+00  0.5499E+01
  -5.088  0.8176E+00  0.5507E+01
  -5.078  0.8154E+00  0.5515E+01
  -5.068  0.8181E+00  0.5523E+01
  -5.058  0.8236E+00  0.5531E+01
  -5.048  0.8291E+00  0.5540E+01
  -5.038  0.8352E+00  0.5548E+01
  -5.028  0.8408E+00  0.5556E+01
  -5.018  0.8326E+00  0.5565E+01
  -5.008  0.8078E+00  0.5573E+01
  -4.998  0.7764E+00  0.5581E+01
  -4.988  0.7485E+00  0.5588E+01
  -4.978  0.7919E+00  0.5596E+01
  -4.968  0.1001E+01  0.5605E+01
  -4.958  0.1306E+01  0.5616E+01
  -4.948  0.1533E+01  0.5631E+01
  -4.938  0.1688E+01  0.5647E+01
  -4.928  0.1867E+01  0.5665E+01
  -4.918  0.1998E+01  0.5684E+01
  -4.908  0.1632E+01  0.5703E+01
  -4.898  0.8737E+00  0.5715E+01
  -4.888  0.4977E+00  0.5722E+01
  -4.878  0.3801E+00  0.5726E+01
  -4.868  0.2992E+00  0.5729E+01
  -4.858  0.2462E+00  0.5732E+01
  -4.848  0.2204E+00  0.5734E+01
  -4.838  0.2129E+00  0.5736E+01
  -4.828  0.2069E+00  0.5739E+01
  -4.818  0.2014E+00  0.5741E+01
  -4.808  0.1965E+00  0.5743E+01
  -4.798  0.1920E+00  0.5745E+01
  -4.788  0.1880E+00  0.5746E+01
  -4.778  0.1845E+00  0.5748E+01
  -4.768  0.1812E+00  0.5750E+01
  -4.758  0.1779E+00  0.5752E+01
  -4.748  0.1746E+00  0.5754E+01
  -4.738  0.1715E+00  0.5755E+01
  -4.728  0.1683E+00  0.5757E+01
  -4.718  0.1653E+00  0.5759E+01
  -4.708  0.1623E+00  0.5760E+01
  -4.698  0.1593E+00  0.5762E+01
  -4.688  0.1564E+00  0.5764E+01
  -4.678  0.1536E+00  0.5765E+01
  -4.668  0.1508E+00  0.5767E+01
  -4.658  0.1481E+00  0.5768E+01
  -4.648  0.1456E+00  0.5770E+01
  -4.638  0.1433E+00  0.5771E+01
  -4.628  0.1413E+00  0.5772E+01
  -4.618  0.1395E+00  0.5774E+01
  -4.608  0.1380E+00  0.5775E+01
  -4.598  0.1367E+00  0.5777E+01
  -4.588  0.1357E+00  0.5778E+01
  -4.578  0.1349E+00  0.5779E+01
  -4.568  0.1344E+00  0.5781E+01
  -4.558  0.1348E+00  0.5782E+01
  -4.548  0.1464E+00  0.5783E+01
  -4.538  0.1598E+00  0.5785E+01
  -4.528  0.1741E+00  0.5787E+01
  -4.518  0.1894E+00  0.5788E+01
  -4.508  0.2079E+00  0.5790E+01
  -4.498  0.2314E+00  0.5793E+01
  -4.488  0.3482E+00  0.5795E+01
  -4.478  0.4756E+00  0.5800E+01
  -4.468  0.5891E+00  0.5805E+01
  -4.458  0.6887E+00  0.5811E+01
  -4.448  0.7754E+00  0.5819E+01
  -4.438  0.8497E+00  0.5827E+01
  -4.428  0.9116E+00  0.5836E+01
  -4.418  0.9610E+00  0.5845E+01
  -4.408  0.9982E+00  0.5855E+01
  -4.398  0.1020E+01  0.5865E+01
  -4.388  0.1018E+01  0.5875E+01
  -4.378  0.9988E+00  0.5885E+01
  -4.368  0.9772E+00  0.5895E+01
  -4.358  0.9540E+00  0.5905E+01
  -4.348  0.1135E+01  0.5915E+01
  -4.338  0.1256E+01  0.5927E+01
  -4.328  0.1256E+01  0.5940E+01
  -4.318  0.1164E+01  0.5952E+01
  -4.308  0.1134E+01  0.5963E+01
  -4.298  0.1159E+01  0.5975E+01
  -4.288  0.1206E+01  0.5987E+01
  -4.278  0.1208E+01  0.5999E+01
  -4.268  0.1264E+01  0.6011E+01
  -4.258  0.1334E+01  0.6024E+01
  -4.248  0.1354E+01  0.6037E+01
  -4.238  0.1373E+01  0.6051E+01
  -4.228  0.1358E+01  0.6065E+01
  -4.218  0.1256E+01  0.6078E+01
  -4.208  0.9787E+00  0.6089E+01
  -4.198  0.9747E+00  0.6098E+01
  -4.188  0.8826E+00  0.6108E+01
  -4.178  0.8479E+00  0.6116E+01
  -4.168  0.8475E+00  0.6125E+01
  -4.158  0.8406E+00  0.6133E+01
  -4.148  0.8304E+00  0.6141E+01
  -4.138  0.8200E+00  0.6150E+01
  -4.128  0.8097E+00  0.6158E+01
  -4.118  0.7997E+00  0.6166E+01
  -4.108  0.7899E+00  0.6174E+01
  -4.098  0.7803E+00  0.6182E+01
  -4.088  0.7709E+00  0.6189E+01
  -4.078  0.7617E+00  0.6197E+01
  -4.068  0.7528E+00  0.6205E+01
  -4.058  0.7441E+00  0.6212E+01
  -4.048  0.7356E+00  0.6219E+01
  -4.038  0.7273E+00  0.6227E+01
  -4.028  0.7192E+00  0.6234E+01
  -4.018  0.7114E+00  0.6241E+01
  -4.008  0.7037E+00  0.6248E+01
  -3.998  0.6963E+00  0.6255E+01
  -3.988  0.6891E+00  0.6262E+01
  -3.978  0.6822E+00  0.6269E+01
  -3.968  0.6754E+00  0.6276E+01
  -3.958  0.6689E+00  0.6283E+01
  -3.948  0.6625E+00  0.6289E+01
  -3.938  0.6564E+00  0.6296E+01
  -3.928  0.6505E+00  0.6302E+01
  -3.918  0.6449E+00  0.6309E+01
  -3.908  0.6394E+00  0.6315E+01
  -3.898  0.6342E+00  0.6322E+01
  -3.888  0.6291E+00  0.6328E+01
  -3.878  0.6243E+00  0.6334E+01
  -3.868  0.6195E+00  0.6340E+01
  -3.858  0.6149E+00  0.6347E+01
  -3.848  0.6102E+00  0.6353E+01
  -3.838  0.6055E+00  0.6359E+01
  -3.828  0.6007E+00  0.6365E+01
  -3.818  0.5957E+00  0.6371E+01
  -3.808  0.5914E+00  0.6377E+01
  -3.798  0.5879E+00  0.6383E+01
  -3.788  0.5858E+00  0.6388E+01
  -3.778  0.5883E+00  0.6394E+01
  -3.768  0.5910E+00  0.6400E+01
  -3.758  0.5931E+00  0.6406E+01
  -3.748  0.5939E+00  0.6412E+01
  -3.738  0.5923E+00  0.6418E+01
  -3.728  0.5904E+00  0.6424E+01
  -3.718  0.5884E+00  0.6430E+01
  -3.708  0.5865E+00  0.6436E+01
  -3.698  0.5846E+00  0.6442E+01
  -3.688  0.5826E+00  0.6447E+01
  -3.678  0.5807E+00  0.6453E+01
  -3.668  0.5788E+00  0.6459E+01
  -3.658  0.5769E+00  0.6465E+01
  -3.648  0.5750E+00  0.6471E+01
  -3.638  0.5731E+00  0.6476E+01
  -3.628  0.5712E+00  0.6482E+01
  -3.618  0.5694E+00  0.6488E+01
  -3.608  0.5676E+00  0.6493E+01
  -3.598  0.5658E+00  0.6499E+01
  -3.588  0.5640E+00  0.6505E+01
  -3.578  0.5622E+00  0.6510E+01
  -3.568  0.5605E+00  0.6516E+01
  -3.558  0.5587E+00  0.6522E+01
  -3.548  0.5570E+00  0.6527E+01
  -3.538  0.5553E+00  0.6533E+01
  -3.528  0.5536E+00  0.6538E+01
  -3.518  0.5519E+00  0.6544E+01
  -3.508  0.5503E+00  0.6549E+01
  -3.498  0.5486E+00  0.6555E+01
  -3.488  0.5470E+00  0.6560E+01
  -3.478  0.5454E+00  0.6566E+01
  -3.468  0.5438E+00  0.6571E+01
  -3.458  0.5423E+00  0.6577E+01
  -3.448  0.5407E+00  0.6582E+01
  -3.438  0.5392E+00  0.6587E+01
  -3.428  0.5376E+00  0.6593E+01
  -3.418  0.5361E+00  0.6598E+01
  -3.408  0.5347E+00  0.6604E+01
  -3.398  0.5332E+00  0.6609E+01
  -3.388  0.5317E+00  0.6614E+01
  -3.378  0.5303E+00  0.6620E+01
  -3.368  0.5289E+00  0.6625E+01
  -3.358  0.5275E+00  0.6630E+01
  -3.348  0.5261E+00  0.6635E+01
  -3.338  0.5246E+00  0.6641E+01
  -3.328  0.5232E+00  0.6646E+01
  -3.318  0.5217E+00  0.6651E+01
  -3.308  0.5208E+00  0.6656E+01
  -3.298  0.5213E+00  0.6661E+01
  -3.288  0.5218E+00  0.6667E+01
  -3.278  0.5222E+00  0.6672E+01
  -3.268  0.5236E+00  0.6677E+01
  -3.258  0.5356E+00  0.6682E+01
  -3.248  0.5374E+00  0.6688E+01
  -3.238  0.5338E+00  0.6693E+01
  -3.228  0.5205E+00  0.6698E+01
  -3.218  0.4978E+00  0.6704E+01
  -3.208  0.5055E+00  0.6709E+01
  -3.198  0.5303E+00  0.6714E+01
  -3.188  0.5171E+00  0.6719E+01
  -3.178  0.4997E+00  0.6724E+01
  -3.168  0.5021E+00  0.6729E+01
  -3.158  0.5252E+00  0.6734E+01
  -3.148  0.5526E+00  0.6740E+01
  -3.138  0.5586E+00  0.6745E+01
  -3.128  0.5606E+00  0.6751E+01
  -3.118  0.5619E+00  0.6756E+01
  -3.108  0.5626E+00  0.6762E+01
  -3.098  0.5627E+00  0.6768E+01
  -3.088  0.5623E+00  0.6773E+01
  -3.078  0.5619E+00  0.6779E+01
  -3.068  0.5616E+00  0.6784E+01
  -3.058  0.5612E+00  0.6790E+01
  -3.048  0.5609E+00  0.6796E+01
  -3.038  0.5605E+00  0.6801E+01
  -3.028  0.5601E+00  0.6807E+01
  -3.018  0.5598E+00  0.6812E+01
  -3.008  0.5594E+00  0.6818E+01
  -2.998  0.5591E+00  0.6824E+01
  -2.988  0.5587E+00  0.6829E+01
  -2.978  0.5584E+00  0.6835E+01
  -2.968  0.5580E+00  0.6840E+01
  -2.958  0.5576E+00  0.6846E+01
  -2.948  0.5573E+00  0.6852E+01
  -2.938  0.5568E+00  0.6857E+01
  -2.928  0.5564E+00  0.6863E+01
  -2.918  0.5560E+00  0.6868E+01
  -2.908  0.5557E+00  0.6874E+01
  -2.898  0.5548E+00  0.6879E+01
  -2.888  0.5515E+00  0.6885E+01
  -2.878  0.5475E+00  0.6890E+01
  -2.868  0.5435E+00  0.6896E+01
  -2.858  0.5397E+00  0.6901E+01
  -2.848  0.5390E+00  0.6907E+01
  -2.838  0.5384E+00  0.6912E+01
  -2.828  0.5377E+00  0.6917E+01
  -2.818  0.5371E+00  0.6923E+01
  -2.808  0.5364E+00  0.6928E+01
  -2.798  0.5357E+00  0.6934E+01
  -2.788  0.5350E+00  0.6939E+01
  -2.778  0.5350E+00  0.6944E+01
  -2.768  0.5355E+00  0.6950E+01
  -2.758  0.5359E+00  0.6955E+01
  -2.748  0.5363E+00  0.6960E+01
  -2.738  0.5275E+00  0.6966E+01
  -2.728  0.5292E+00  0.6971E+01
  -2.718  0.5344E+00  0.6976E+01
  -2.708  0.5386E+00  0.6982E+01
  -2.698  0.5418E+00  0.6987E+01
  -2.688  0.5440E+00  0.6992E+01
  -2.678  0.5452E+00  0.6998E+01
  -2.668  0.5455E+00  0.7003E+01
  -2.658  0.5453E+00  0.7009E+01
  -2.648  0.5429E+00  0.7014E+01
  -2.638  0.5403E+00  0.7020E+01
  -2.628  0.5394E+00  0.7025E+01
  -2.618  0.5385E+00  0.7030E+01
  -2.608  0.5376E+00  0.7036E+01
  -2.598  0.5367E+00  0.7041E+01
  -2.588  0.5357E+00  0.7047E+01
  -2.578  0.5347E+00  0.7052E+01
  -2.568  0.5336E+00  0.7057E+01
  -2.558  0.5325E+00  0.7063E+01
  -2.548  0.5313E+00  0.7068E+01
  -2.538  0.5301E+00  0.7073E+01
  -2.528  0.5289E+00  0.7079E+01
  -2.518  0.5277E+00  0.7084E+01
  -2.508  0.5263E+00  0.7089E+01
  -2.498  0.5250E+00  0.7094E+01
  -2.488  0.5236E+00  0.7100E+01
  -2.478  0.5222E+00  0.7105E+01
  -2.468  0.5207E+00  0.7110E+01
  -2.458  0.5196E+00  0.7115E+01
  -2.448  0.5214E+00  0.7120E+01
  -2.438  0.5349E+00  0.7126E+01
  -2.428  0.5576E+00  0.7131E+01
  -2.418  0.5741E+00  0.7137E+01
  -2.408  0.5844E+00  0.7143E+01
  -2.398  0.5889E+00  0.7148E+01
  -2.388  0.5935E+00  0.7154E+01
  -2.378  0.5944E+00  0.7160E+01
  -2.368  0.5917E+00  0.7166E+01
  -2.358  0.5886E+00  0.7172E+01
  -2.348  0.5852E+00  0.7178E+01
  -2.338  0.5814E+00  0.7184E+01
  -2.328  0.5773E+00  0.7190E+01
  -2.318  0.5728E+00  0.7195E+01
  -2.308  0.5646E+00  0.7201E+01
  -2.298  0.5556E+00  0.7207E+01
  -2.288  0.5476E+00  0.7212E+01
  -2.278  0.5397E+00  0.7218E+01
  -2.268  0.5313E+00  0.7223E+01
  -2.258  0.5225E+00  0.7228E+01
  -2.248  0.5135E+00  0.7233E+01
  -2.238  0.5065E+00  0.7239E+01
  -2.228  0.4991E+00  0.7244E+01
  -2.218  0.4913E+00  0.7249E+01
  -2.208  0.4831E+00  0.7253E+01
  -2.198  0.4745E+00  0.7258E+01
  -2.188  0.4655E+00  0.7263E+01
  -2.178  0.4561E+00  0.7267E+01
  -2.168  0.4462E+00  0.7272E+01
  -2.158  0.4360E+00  0.7276E+01
  -2.148  0.4254E+00  0.7281E+01
  -2.138  0.4145E+00  0.7285E+01
  -2.128  0.4032E+00  0.7289E+01
  -2.118  0.3915E+00  0.7293E+01
  -2.108  0.3795E+00  0.7297E+01
  -2.098  0.3717E+00  0.7301E+01
  -2.088  0.3694E+00  0.7304E+01
  -2.078  0.3675E+00  0.7308E+01
  -2.068  0.3659E+00  0.7312E+01
  -2.058  0.3647E+00  0.7315E+01
  -2.048  0.3637E+00  0.7319E+01
  -2.038  0.3650E+00  0.7323E+01
  -2.028  0.3665E+00  0.7326E+01
  -2.018  0.3680E+00  0.7330E+01
  -2.008  0.3696E+00  0.7334E+01
  -1.998  0.3712E+00  0.7337E+01
  -1.988  0.3729E+00  0.7341E+01
  -1.978  0.3747E+00  0.7345E+01
  -1.968  0.3765E+00  0.7349E+01
  -1.958  0.3784E+00  0.7352E+01
  -1.948  0.3803E+00  0.7356E+01
  -1.938  0.3823E+00  0.7360E+01
  -1.928  0.3843E+00  0.7364E+01
  -1.918  0.3863E+00  0.7368E+01
  -1.908  0.3884E+00  0.7371E+01
  -1.898  0.3904E+00  0.7375E+01
  -1.888  0.3925E+00  0.7379E+01
  -1.878  0.3946E+00  0.7383E+01
  -1.868  0.3966E+00  0.7387E+01
  -1.858  0.3981E+00  0.7391E+01
  -1.848  0.3935E+00  0.7395E+01
  -1.838  0.3828E+00  0.7399E+01
  -1.828  0.3728E+00  0.7403E+01
  -1.818  0.3643E+00  0.7406E+01
  -1.808  0.3822E+00  0.7410E+01
  -1.798  0.4045E+00  0.7414E+01
  -1.788  0.4162E+00  0.7418E+01
  -1.778  0.4305E+00  0.7422E+01
  -1.768  0.4348E+00  0.7427E+01
  -1.758  0.4218E+00  0.7431E+01
  -1.748  0.4095E+00  0.7435E+01
  -1.738  0.3980E+00  0.7439E+01
  -1.728  0.3944E+00  0.7443E+01
  -1.718  0.3912E+00  0.7447E+01
  -1.708  0.3883E+00  0.7451E+01
  -1.698  0.3923E+00  0.7455E+01
  -1.688  0.4025E+00  0.7459E+01
  -1.678  0.4116E+00  0.7463E+01
  -1.668  0.4203E+00  0.7467E+01
  -1.658  0.4292E+00  0.7471E+01
  -1.648  0.4381E+00  0.7476E+01
  -1.638  0.4471E+00  0.7480E+01
  -1.628  0.4562E+00  0.7485E+01
  -1.618  0.4653E+00  0.7489E+01
  -1.608  0.4745E+00  0.7494E+01
  -1.598  0.4841E+00  0.7499E+01
  -1.588  0.4944E+00  0.7504E+01
  -1.578  0.5056E+00  0.7509E+01
  -1.568  0.5184E+00  0.7514E+01
  -1.558  0.5142E+00  0.7519E+01
  -1.548  0.4994E+00  0.7524E+01
  -1.538  0.4843E+00  0.7529E+01
  -1.528  0.4689E+00  0.7534E+01
  -1.518  0.4533E+00  0.7538E+01
  -1.508  0.4375E+00  0.7543E+01
  -1.498  0.4260E+00  0.7547E+01
  -1.488  0.4159E+00  0.7551E+01
  -1.478  0.6042E+00  0.7556E+01
  -1.468  0.9786E+00  0.7564E+01
  -1.458  0.1036E+01  0.7574E+01
  -1.448  0.9113E+00  0.7584E+01
  -1.438  0.7997E+00  0.7607E+01
  -1.428  0.7026E+00  0.7614E+01
  -1.418  0.6191E+00  0.7621E+01
  -1.408  0.5491E+00  0.7627E+01
  -1.398  0.4926E+00  0.7632E+01
  -1.388  0.4495E+00  0.7636E+01
  -1.378  0.4200E+00  0.7641E+01
  -1.368  0.4046E+00  0.7645E+01
  -1.358  0.3998E+00  0.7649E+01
  -1.348  0.3956E+00  0.7653E+01
  -1.338  0.3918E+00  0.7657E+01
  -1.328  0.3882E+00  0.7661E+01
  -1.318  0.3846E+00  0.7665E+01
  -1.308  0.3811E+00  0.7668E+01
  -1.298  0.3777E+00  0.7672E+01
  -1.288  0.3743E+00  0.7676E+01
  -1.278  0.3710E+00  0.7680E+01
  -1.268  0.3677E+00  0.7683E+01
  -1.258  0.3644E+00  0.7687E+01
  -1.248  0.3611E+00  0.7691E+01
  -1.238  0.3578E+00  0.7694E+01
  -1.228  0.3544E+00  0.7698E+01
  -1.218  0.3511E+00  0.7701E+01
  -1.208  0.3478E+00  0.7705E+01
  -1.198  0.3444E+00  0.7708E+01
  -1.188  0.3411E+00  0.7712E+01
  -1.178  0.3377E+00  0.7715E+01
  -1.168  0.3344E+00  0.7719E+01
  -1.158  0.3310E+00  0.7722E+01
  -1.148  0.3276E+00  0.7725E+01
  -1.138  0.3243E+00  0.7728E+01
  -1.128  0.3209E+00  0.7732E+01
  -1.118  0.3175E+00  0.7735E+01
  -1.108  0.3141E+00  0.7738E+01
  -1.098  0.3107E+00  0.7741E+01
  -1.088  0.3073E+00  0.7744E+01
  -1.078  0.3038E+00  0.7747E+01
  -1.068  0.3004E+00  0.7750E+01
  -1.058  0.2970E+00  0.7753E+01
  -1.048  0.2935E+00  0.7756E+01
  -1.038  0.2901E+00  0.7759E+01
  -1.028  0.2866E+00  0.7762E+01
  -1.018  0.2832E+00  0.7765E+01
  -1.008  0.2797E+00  0.7768E+01
  -0.998  0.2762E+00  0.7770E+01
  -0.988  0.2728E+00  0.7773E+01
  -0.978  0.2693E+00  0.7776E+01
  -0.968  0.2658E+00  0.7779E+01
  -0.958  0.2623E+00  0.7781E+01
  -0.948  0.2588E+00  0.7784E+01
  -0.938  0.2552E+00  0.7786E+01
  -0.928  0.2517E+00  0.7789E+01
  -0.918  0.2482E+00  0.7791E+01
  -0.908  0.2447E+00  0.7794E+01
  -0.898  0.2411E+00  0.7796E+01
  -0.888  0.2376E+00  0.7799E+01
  -0.878  0.2340E+00  0.7801E+01
  -0.868  0.2305E+00  0.7803E+01
  -0.858  0.2269E+00  0.7806E+01
  -0.848  0.2242E+00  0.7808E+01
  -0.838  0.2233E+00  0.7810E+01
  -0.828  0.2249E+00  0.7812E+01
  -0.818  0.2266E+00  0.7815E+01
  -0.808  0.2282E+00  0.7817E+01
  -0.798  0.2299E+00  0.7819E+01
  -0.788  0.2316E+00  0.7822E+01
  -0.778  0.2332E+00  0.7824E+01
  -0.768  0.2364E+00  0.7826E+01
  -0.758  0.2365E+00  0.7829E+01
  -0.748  0.2349E+00  0.7831E+01
  -0.738  0.2335E+00  0.7833E+01
  -0.728  0.2323E+00  0.7836E+01
  -0.718  0.2312E+00  0.7838E+01
  -0.708  0.2302E+00  0.7840E+01
  -0.698  0.2292E+00  0.7843E+01
  -0.688  0.2280E+00  0.7845E+01
  -0.678  0.2268E+00  0.7847E+01
  -0.668  0.2255E+00  0.7849E+01
  -0.658  0.2241E+00  0.7852E+01
  -0.648  0.2227E+00  0.7854E+01
  -0.638  0.2213E+00  0.7856E+01
  -0.628  0.2198E+00  0.7858E+01
  -0.618  0.2183E+00  0.7860E+01
  -0.608  0.2169E+00  0.7863E+01
  -0.598  0.2153E+00  0.7865E+01
  -0.588  0.2138E+00  0.7867E+01
  -0.578  0.2123E+00  0.7869E+01
  -0.568  0.2107E+00  0.7871E+01
  -0.558  0.2091E+00  0.7873E+01
  -0.548  0.2075E+00  0.7875E+01
  -0.538  0.2059E+00  0.7877E+01
  -0.528  0.2043E+00  0.7879E+01
  -0.518  0.2026E+00  0.7882E+01
  -0.508  0.2009E+00  0.7884E+01
  -0.498  0.1992E+00  0.7886E+01
  -0.488  0.1975E+00  0.7888E+01
  -0.478  0.1958E+00  0.7890E+01
  -0.468  0.1940E+00  0.7891E+01
  -0.458  0.1922E+00  0.7893E+01
  -0.448  0.1919E+00  0.7895E+01
  -0.438  0.1950E+00  0.7897E+01
  -0.428  0.1982E+00  0.7899E+01
  -0.418  0.2015E+00  0.7901E+01
  -0.408  0.2048E+00  0.7903E+01
  -0.398  0.2051E+00  0.7905E+01
  -0.388  0.1920E+00  0.7907E+01
  -0.378  0.1842E+00  0.7909E+01
  -0.368  0.1956E+00  0.7911E+01
  -0.358  0.1893E+00  0.7913E+01
  -0.348  0.1697E+00  0.7915E+01
  -0.338  0.1519E+00  0.7916E+01
  -0.328  0.1375E+00  0.7918E+01
  -0.318  0.1245E+00  0.7919E+01
  -0.308  0.1136E+00  0.7920E+01
  -0.298  0.1066E+00  0.7921E+01
  -0.288  0.1012E+00  0.7922E+01
  -0.278  0.9761E-01  0.7923E+01
  -0.268  0.9576E-01  0.7924E+01
  -0.258  0.9547E-01  0.7925E+01
  -0.248  0.9635E-01  0.7926E+01
  -0.238  0.9662E-01  0.7927E+01
  -0.228  0.9632E-01  0.7928E+01
  -0.218  0.9589E-01  0.7929E+01
  -0.208  0.9545E-01  0.7930E+01
  -0.198  0.9500E-01  0.7931E+01
  -0.188  0.9456E-01  0.7932E+01
  -0.178  0.9410E-01  0.7933E+01
  -0.168  0.9365E-01  0.7934E+01
  -0.158  0.9318E-01  0.7935E+01
  -0.148  0.9272E-01  0.7936E+01
  -0.138  0.9224E-01  0.7937E+01
  -0.128  0.9177E-01  0.7938E+01
  -0.118  0.9129E-01  0.7939E+01
  -0.108  0.9080E-01  0.7939E+01
  -0.098  0.9031E-01  0.7940E+01
  -0.088  0.8982E-01  0.7941E+01
  -0.078  0.8932E-01  0.7942E+01
  -0.068  0.8881E-01  0.7943E+01
  -0.058  0.8830E-01  0.7944E+01
  -0.048  0.8779E-01  0.7945E+01
  -0.038  0.8727E-01  0.7946E+01
  -0.028  0.8675E-01  0.7947E+01
  -0.018  0.8622E-01  0.7947E+01
  -0.008  0.8569E-01  0.7948E+01
   0.002  0.8515E-01  0.7949E+01
   0.012  0.8461E-01  0.7950E+01
   0.022  0.8407E-01  0.7951E+01
   0.032  0.8352E-01  0.7952E+01
   0.042  0.8296E-01  0.7953E+01
   0.052  0.8240E-01  0.7953E+01
   0.062  0.8184E-01  0.7954E+01
   0.072  0.8127E-01  0.7955E+01
   0.082  0.8070E-01  0.7956E+01
   0.092  0.8012E-01  0.7957E+01
   0.102  0.7953E-01  0.7957E+01
   0.112  0.7895E-01  0.7958E+01
   0.122  0.7835E-01  0.7959E+01
   0.132  0.7776E-01  0.7960E+01
   0.142  0.7716E-01  0.7961E+01
   0.152  0.7655E-01  0.7961E+01
   0.162  0.7594E-01  0.7962E+01
   0.172  0.7532E-01  0.7963E+01
   0.182  0.7470E-01  0.7964E+01
   0.192  0.7408E-01  0.7964E+01
   0.202  0.7345E-01  0.7965E+01
   0.212  0.7282E-01  0.7966E+01
   0.222  0.7218E-01  0.7967E+01
   0.232  0.7153E-01  0.7967E+01
   0.242  0.7089E-01  0.7968E+01
   0.252  0.7023E-01  0.7969E+01
   0.262  0.6958E-01  0.7969E+01
   0.272  0.6891E-01  0.7970E+01
   0.282  0.6825E-01  0.7971E+01
   0.292  0.6758E-01  0.7971E+01
   0.302  0.6690E-01  0.7972E+01
   0.312  0.6622E-01  0.7973E+01
   0.322  0.6554E-01  0.7973E+01
   0.332  0.6485E-01  0.7974E+01
   0.342  0.6415E-01  0.7975E+01
   0.352  0.6345E-01  0.7975E+01
   0.362  0.6275E-01  0.7976E+01
   0.372  0.6204E-01  0.7977E+01
   0.382  0.6133E-01  0.7977E+01
   0.392  0.6061E-01  0.7978E+01
   0.402  0.5989E-01  0.7978E+01
   0.412  0.5916E-01  0.7979E+01
   0.422  0.5843E-01  0.7980E+01
   0.432  0.5769E-01  0.7980E+01
   0.442  0.5695E-01  0.7981E+01
   0.452  0.5621E-01  0.7981E+01
   0.462  0.5546E-01  0.7982E+01
   0.472  0.5470E-01  0.7982E+01
   0.482  0.5395E-01  0.7983E+01
   0.492  0.5318E-01  0.7984E+01
   0.502  0.5241E-01  0.7984E+01
   0.512  0.5164E-01  0.7985E+01
   0.522  0.5086E-01  0.7985E+01
   0.532  0.5008E-01  0.7986E+01
   0.542  0.4929E-01  0.7986E+01
   0.552  0.4850E-01  0.7987E+01
   0.562  0.4770E-01  0.7987E+01
   0.572  0.4690E-01  0.7988E+01
   0.582  0.4610E-01  0.7988E+01
   0.592  0.4529E-01  0.7988E+01
   0.602  0.4447E-01  0.7989E+01
   0.612  0.4365E-01  0.7989E+01
   0.622  0.4283E-01  0.7990E+01
   0.632  0.4200E-01  0.7990E+01
   0.642  0.4117E-01  0.7991E+01
   0.652  0.4033E-01  0.7991E+01
   0.662  0.3950E-01  0.7991E+01
   0.672  0.3867E-01  0.7992E+01
   0.682  0.3783E-01  0.7992E+01
   0.692  0.3700E-01  0.7993E+01
   0.702  0.3616E-01  0.7993E+01
   0.712  0.3533E-01  0.7993E+01
   0.722  0.3451E-01  0.7994E+01
   0.732  0.3369E-01  0.7994E+01
   0.742  0.3288E-01  0.7994E+01
   0.752  0.3207E-01  0.7995E+01
   0.762  0.3138E-01  0.7995E+01
   0.772  0.3107E-01  0.7995E+01
   0.782  0.3075E-01  0.7996E+01
   0.792  0.3078E-01  0.7996E+01
   0.802  0.3101E-01  0.7996E+01
   0.812  0.3124E-01  0.7997E+01
   0.822  0.3145E-01  0.7997E+01
   0.832  0.3166E-01  0.7997E+01
   0.842  0.3185E-01  0.7997E+01
   0.852  0.3204E-01  0.7998E+01
   0.862  0.3221E-01  0.7998E+01
   0.872  0.3238E-01  0.7998E+01
   0.882  0.3253E-01  0.7999E+01
   0.892  0.3267E-01  0.7999E+01
   0.902  0.3281E-01  0.7999E+01
   0.912  0.3293E-01  0.8000E+01
   0.922  0.3305E-01  0.8000E+01
   0.932  0.3315E-01  0.8000E+01
   0.942  0.3325E-01  0.8001E+01
   0.952  0.3333E-01  0.8001E+01
   0.962  0.3341E-01  0.8001E+01
   0.972  0.3347E-01  0.8002E+01
   0.982  0.3352E-01  0.8002E+01
   0.992  0.3357E-01  0.8002E+01
   1.002  0.3360E-01  0.8003E+01
   1.012  0.3363E-01  0.8003E+01
   1.022  0.3364E-01  0.8003E+01
   1.032  0.3365E-01  0.8004E+01
   1.042  0.3364E-01  0.8004E+01
   1.052  0.3362E-01  0.8004E+01
   1.062  0.3360E-01  0.8005E+01
   1.072  0.3381E-01  0.8005E+01
   1.082  0.3427E-01  0.8005E+01
   1.092  0.3500E-01  0.8006E+01
   1.102  0.3590E-01  0.8006E+01
   1.112  0.3681E-01  0.8006E+01
   1.122  0.3772E-01  0.8007E+01
   1.132  0.3863E-01  0.8007E+01
   1.142  0.3955E-01  0.8008E+01
   1.152  0.4047E-01  0.8008E+01
   1.162  0.4139E-01  0.8008E+01
   1.172  0.4232E-01  0.8009E+01
   1.182  0.4324E-01  0.8009E+01
   1.192  0.4417E-01  0.8010E+01
   1.202  0.4509E-01  0.8010E+01
   1.212  0.4601E-01  0.8011E+01
   1.222  0.4693E-01  0.8011E+01
   1.232  0.4784E-01  0.8012E+01
   1.242  0.4874E-01  0.8012E+01
   1.252  0.4964E-01  0.8013E+01
   1.262  0.5054E-01  0.8013E+01
   1.272  0.5143E-01  0.8014E+01
   1.282  0.5231E-01  0.8014E+01
   1.292  0.5319E-01  0.8015E+01
   1.302  0.5406E-01  0.8015E+01
   1.312  0.5493E-01  0.8016E+01
   1.322  0.5579E-01  0.8016E+01
   1.332  0.5665E-01  0.8017E+01
   1.342  0.5750E-01  0.8017E+01
   1.352  0.5835E-01  0.8018E+01
   1.362  0.5919E-01  0.8019E+01
   1.372  0.6002E-01  0.8019E+01
   1.382  0.6085E-01  0.8020E+01
   1.392  0.6168E-01  0.8020E+01
   1.402  0.6250E-01  0.8021E+01
   1.412  0.6331E-01  0.8022E+01
   1.422  0.6412E-01  0.8022E+01
   1.432  0.6492E-01  0.8023E+01
   1.442  0.6572E-01  0.8024E+01
   1.452  0.6651E-01  0.8024E+01
   1.462  0.6730E-01  0.8025E+01
   1.472  0.6808E-01  0.8026E+01
   1.482  0.6886E-01  0.8026E+01
   1.492  0.6963E-01  0.8027E+01
   1.502  0.7040E-01  0.8028E+01
   1.512  0.7116E-01  0.8028E+01
   1.522  0.7191E-01  0.8029E+01
   1.532  0.7266E-01  0.8030E+01
   1.542  0.7340E-01  0.8030E+01
   1.552  0.7414E-01  0.8031E+01
   1.562  0.7487E-01  0.8032E+01
   1.572  0.7560E-01  0.8033E+01
   1.582  0.7632E-01  0.8033E+01
   1.592  0.7704E-01  0.8034E+01
   1.602  0.7775E-01  0.8035E+01
   1.612  0.7846E-01  0.8036E+01
   1.622  0.7916E-01  0.8037E+01
   1.632  0.7986E-01  0.8037E+01
   1.642  0.8055E-01  0.8038E+01
   1.652  0.8123E-01  0.8039E+01
   1.662  0.8191E-01  0.8040E+01
   1.672  0.8258E-01  0.8041E+01
   1.682  0.8325E-01  0.8041E+01
   1.692  0.8392E-01  0.8042E+01
   1.702  0.8457E-01  0.8043E+01
   1.712  0.8523E-01  0.8044E+01
   1.722  0.8587E-01  0.8045E+01
   1.732  0.8651E-01  0.8046E+01
   1.742  0.8715E-01  0.8047E+01
   1.752  0.8778E-01  0.8047E+01
   1.762  0.8841E-01  0.8048E+01
   1.772  0.8903E-01  0.8049E+01
   1.782  0.8964E-01  0.8050E+01
   1.792  0.9025E-01  0.8051E+01
   1.802  0.9085E-01  0.8052E+01
   1.812  0.9145E-01  0.8053E+01
   1.822  0.9205E-01  0.8054E+01
   1.832  0.9263E-01  0.8055E+01
   1.842  0.9322E-01  0.8056E+01
   1.852  0.9379E-01  0.8057E+01
   1.862  0.9436E-01  0.8057E+01
   1.872  0.9493E-01  0.8058E+01
   1.882  0.9549E-01  0.8059E+01
   1.892  0.9605E-01  0.8060E+01
   1.902  0.9660E-01  0.8061E+01
   1.912  0.9714E-01  0.8062E+01
   1.922  0.9768E-01  0.8063E+01
   1.932  0.9822E-01  0.8064E+01
   1.942  0.9874E-01  0.8065E+01
   1.952  0.9927E-01  0.8066E+01
   1.962  0.9978E-01  0.8067E+01
   1.972  0.1003E+00  0.8068E+01
   1.982  0.1008E+00  0.8069E+01
   1.992  0.1010E+00  0.8070E+01
   2.002  0.1005E+00  0.8071E+01
   2.012  0.1003E+00  0.8072E+01
   2.022  0.1021E+00  0.8073E+01
   2.032  0.1061E+00  0.8074E+01
   2.042  0.1123E+00  0.8075E+01
   2.052  0.1208E+00  0.8077E+01
   2.062  0.1315E+00  0.8078E+01
   2.072  0.1444E+00  0.8079E+01
   2.082  0.1623E+00  0.8081E+01
   2.092  0.1903E+00  0.8082E+01
   2.102  0.2197E+00  0.8084E+01
   2.112  0.2524E+00  0.8087E+01
   2.122  0.2914E+00  0.8090E+01
   2.132  0.3166E+00  0.8093E+01
   2.142  0.3147E+00  0.8096E+01
   2.152  0.3017E+00  0.8099E+01
   2.162  0.2788E+00  0.8102E+01
   2.172  0.2620E+00  0.8104E+01
   2.182  0.2763E+00  0.8107E+01
   2.192  0.2616E+00  0.8110E+01
   2.202  0.2502E+00  0.8112E+01
   2.212  0.2390E+00  0.8115E+01
   2.222  0.2290E+00  0.8117E+01
   2.232  0.2874E+00  0.8120E+01
   2.242  0.2848E+00  0.8123E+01
   2.252  0.2949E+00  0.8126E+01
   2.262  0.3208E+00  0.8129E+01
   2.272  0.3276E+00  0.8132E+01
   2.282  0.3174E+00  0.8135E+01
   2.292  0.3073E+00  0.8138E+01
   2.302  0.2972E+00  0.8141E+01
   2.312  0.2873E+00  0.8144E+01
   2.322  0.2773E+00  0.8147E+01
   2.332  0.2675E+00  0.8150E+01
   2.342  0.2577E+00  0.8152E+01
   2.352  0.2479E+00  0.8155E+01
   2.362  0.2427E+00  0.8157E+01
   2.372  0.2507E+00  0.8160E+01
   2.382  0.2587E+00  0.8162E+01
   2.392  0.2668E+00  0.8165E+01
   2.402  0.2748E+00  0.8168E+01
   2.412  0.2829E+00  0.8170E+01
   2.422  0.2909E+00  0.8173E+01
   2.432  0.2990E+00  0.8176E+01
   2.442  0.3070E+00  0.8179E+01
   2.452  0.3151E+00  0.8182E+01
   2.462  0.3233E+00  0.8186E+01
   2.472  0.3315E+00  0.8189E+01
   2.482  0.3398E+00  0.8192E+01
   2.492  0.3484E+00  0.8196E+01
   2.502  0.3608E+00  0.8199E+01
   2.512  0.3737E+00  0.8203E+01
   2.522  0.3865E+00  0.8207E+01
   2.532  0.3992E+00  0.8211E+01
   2.542  0.4118E+00  0.8215E+01
   2.552  0.4243E+00  0.8219E+01
   2.562  0.4367E+00  0.8223E+01
   2.572  0.4490E+00  0.8228E+01
   2.582  0.4637E+00  0.8232E+01
   2.592  0.5262E+00  0.8237E+01
   2.602  0.5998E+00  0.8243E+01
   2.612  0.6737E+00  0.8249E+01
   2.622  0.7479E+00  0.8256E+01
   2.632  0.8159E+00  0.8264E+01
   2.642  0.8662E+00  0.8272E+01
   2.652  0.8983E+00  0.8281E+01
   2.662  0.9124E+00  0.8290E+01
   2.672  0.9084E+00  0.8299E+01
   2.682  0.8863E+00  0.8308E+01
   2.692  0.8461E+00  0.8317E+01
   2.702  0.7878E+00  0.8325E+01
   2.712  0.7240E+00  0.8333E+01
   2.722  0.6925E+00  0.8340E+01
   2.732  0.6543E+00  0.8347E+01
   2.742  0.6068E+00  0.8353E+01
   2.752  0.5499E+00  0.8359E+01
   2.762  0.4838E+00  0.8364E+01
   2.772  0.4183E+00  0.8368E+01
   2.782  0.4123E+00  0.8373E+01
   2.792  0.4163E+00  0.8377E+01
   2.802  0.4205E+00  0.8381E+01
   2.812  0.4260E+00  0.8385E+01
   2.822  0.4322E+00  0.8389E+01
   2.832  0.4384E+00  0.8394E+01
   2.842  0.4444E+00  0.8398E+01
   2.852  0.4504E+00  0.8403E+01
   2.862  0.4563E+00  0.8407E+01
   2.872  0.4599E+00  0.8412E+01
   2.882  0.4574E+00  0.8416E+01
   2.892  0.4528E+00  0.8421E+01
   2.902  0.4482E+00  0.8425E+01
   2.912  0.4437E+00  0.8430E+01
   2.922  0.4393E+00  0.8434E+01
   2.932  0.4349E+00  0.8439E+01
   2.942  0.4306E+00  0.8443E+01
   2.952  0.4263E+00  0.8447E+01
   2.962  0.4221E+00  0.8452E+01
   2.972  0.4179E+00  0.8456E+01
   2.982  0.4138E+00  0.8460E+01
   2.992  0.4098E+00  0.8464E+01
   3.002  0.4057E+00  0.8468E+01
   3.012  0.4018E+00  0.8472E+01
   3.022  0.3979E+00  0.8476E+01
   3.032  0.3940E+00  0.8480E+01
   3.042  0.3902E+00  0.8484E+01
   3.052  0.3864E+00  0.8488E+01
   3.062  0.3827E+00  0.8492E+01
   3.072  0.3791E+00  0.8496E+01
   3.082  0.3755E+00  0.8499E+01
   3.092  0.3719E+00  0.8503E+01
   3.102  0.3684E+00  0.8507E+01
   3.112  0.3650E+00  0.8510E+01
   3.122  0.3616E+00  0.8514E+01
   3.132  0.3582E+00  0.8518E+01
   3.142  0.3550E+00  0.8521E+01
   3.152  0.3517E+00  0.8525E+01
   3.162  0.3485E+00  0.8528E+01
   3.172  0.3454E+00  0.8532E+01
   3.182  0.3423E+00  0.8535E+01
   3.192  0.3393E+00  0.8539E+01
   3.202  0.3363E+00  0.8542E+01
   3.212  0.3334E+00  0.8545E+01
   3.222  0.3305E+00  0.8549E+01
   3.232  0.3276E+00  0.8552E+01
   3.242  0.3249E+00  0.8555E+01
   3.252  0.3221E+00  0.8558E+01
   3.262  0.3194E+00  0.8562E+01
   3.272  0.3167E+00  0.8565E+01
   3.282  0.3140E+00  0.8568E+01
   3.292  0.3113E+00  0.8571E+01
   3.302  0.3085E+00  0.8574E+01
   3.312  0.3057E+00  0.8577E+01
   3.322  0.3030E+00  0.8580E+01
   3.332  0.3002E+00  0.8583E+01
   3.342  0.2974E+00  0.8586E+01
   3.352  0.2946E+00  0.8589E+01
   3.362  0.2917E+00  0.8592E+01
   3.372  0.2888E+00  0.8595E+01
   3.382  0.2885E+00  0.8598E+01
   3.392  0.2895E+00  0.8601E+01
   3.402  0.2904E+00  0.8604E+01
   3.412  0.2914E+00  0.8607E+01
   3.422  0.2929E+00  0.8610E+01
   3.432  0.2946E+00  0.8613E+01
   3.442  0.2965E+00  0.8615E+01
   3.452  0.3005E+00  0.8618E+01
   3.462  0.3028E+00  0.8621E+01
   3.472  0.3030E+00  0.8624E+01
   3.482  0.3002E+00  0.8628E+01
   3.492  0.2976E+00  0.8630E+01
   3.502  0.2952E+00  0.8633E+01
   3.512  0.2930E+00  0.8636E+01
   3.522  0.2909E+00  0.8639E+01
   3.532  0.2887E+00  0.8642E+01
   3.542  0.2865E+00  0.8645E+01
   3.552  0.2843E+00  0.8648E+01
   3.562  0.2821E+00  0.8651E+01
   3.572  0.2798E+00  0.8654E+01
   3.582  0.2775E+00  0.8656E+01
   3.592  0.2752E+00  0.8659E+01
   3.602  0.2728E+00  0.8662E+01
   3.612  0.2703E+00  0.8665E+01
   3.622  0.2683E+00  0.8667E+01
   3.632  0.2675E+00  0.8670E+01
   3.642  0.2667E+00  0.8673E+01
   3.652  0.2658E+00  0.8675E+01
   3.662  0.2649E+00  0.8678E+01
   3.672  0.2640E+00  0.8681E+01
   3.682  0.2631E+00  0.8683E+01
   3.692  0.2624E+00  0.8686E+01
   3.702  0.2624E+00  0.8688E+01
   3.712  0.2621E+00  0.8691E+01
   3.722  0.2629E+00  0.8694E+01
   3.732  0.2740E+00  0.8696E+01
   3.742  0.3035E+00  0.8699E+01
   3.752  0.3319E+00  0.8702E+01
   3.762  0.3589E+00  0.8706E+01
   3.772  0.3821E+00  0.8710E+01
   3.782  0.4025E+00  0.8714E+01
   3.792  0.4213E+00  0.8718E+01
   3.802  0.4386E+00  0.8722E+01
   3.812  0.4543E+00  0.8726E+01
   3.822  0.4686E+00  0.8731E+01
   3.832  0.4813E+00  0.8736E+01
   3.842  0.4926E+00  0.8741E+01
   3.852  0.5024E+00  0.8746E+01
   3.862  0.5108E+00  0.8751E+01
   3.872  0.5176E+00  0.8756E+01
   3.882  0.5230E+00  0.8761E+01
   3.892  0.5269E+00  0.8766E+01
   3.902  0.5294E+00  0.8772E+01
   3.912  0.5303E+00  0.8777E+01
   3.922  0.5431E+00  0.8782E+01
   3.932  0.5395E+00  0.8788E+01
   3.942  0.5103E+00  0.8793E+01
   3.952  0.4554E+00  0.8798E+01
   3.962  0.4539E+00  0.8802E+01
   3.972  0.4542E+00  0.8807E+01
   3.982  0.4545E+00  0.8811E+01
   3.992  0.4548E+00  0.8816E+01
   4.002  0.4552E+00  0.8821E+01
   4.012  0.4555E+00  0.8825E+01
   4.022  0.4558E+00  0.8830E+01
   4.032  0.4562E+00  0.8834E+01
   4.042  0.4565E+00  0.8839E+01
   4.052  0.4569E+00  0.8843E+01
   4.062  0.4572E+00  0.8848E+01
   4.072  0.4575E+00  0.8852E+01
   4.082  0.4579E+00  0.8857E+01
   4.092  0.4582E+00  0.8862E+01
   4.102  0.4586E+00  0.8866E+01
   4.112  0.4589E+00  0.8871E+01
   4.122  0.4593E+00  0.8875E+01
   4.132  0.4597E+00  0.8880E+01
   4.142  0.4600E+00  0.8885E+01
   4.152  0.4604E+00  0.8889E+01
   4.162  0.4608E+00  0.8894E+01
   4.172  0.4611E+00  0.8898E+01
   4.182  0.4615E+00  0.8903E+01
   4.192  0.4619E+00  0.8908E+01
   4.202  0.4622E+00  0.8912E+01
   4.212  0.4626E+00  0.8917E+01
   4.222  0.4630E+00  0.8921E+01
   4.232  0.4634E+00  0.8926E+01
   4.242  0.4637E+00  0.8931E+01
   4.252  0.4641E+00  0.8935E+01
   4.262  0.4645E+00  0.8940E+01
   4.272  0.4649E+00  0.8945E+01
   4.282  0.4653E+00  0.8949E+01
   4.292  0.4657E+00  0.8954E+01
   4.302  0.4661E+00  0.8959E+01
   4.312  0.4665E+00  0.8963E+01
   4.322  0.4669E+00  0.8968E+01
   4.332  0.4673E+00  0.8973E+01
   4.342  0.4677E+00  0.8977E+01
   4.352  0.4681E+00  0.8982E+01
   4.362  0.4685E+00  0.8987E+01
   4.372  0.4689E+00  0.8991E+01
   4.382  0.4694E+00  0.8996E+01
   4.392  0.4700E+00  0.9001E+01
   4.402  0.4698E+00  0.9005E+01
   4.412  0.4672E+00  0.9010E+01
   4.422  0.4646E+00  0.9015E+01
   4.432  0.4622E+00  0.9019E+01
   4.442  0.4599E+00  0.9024E+01
   4.452  0.4577E+00  0.9029E+01
   4.462  0.4556E+00  0.9033E+01
   4.472  0.4536E+00  0.9038E+01
   4.482  0.4517E+00  0.9042E+01
   4.492  0.4499E+00  0.9047E+01
   4.502  0.4482E+00  0.9051E+01
   4.512  0.4466E+00  0.9056E+01
   4.522  0.4451E+00  0.9060E+01
   4.532  0.4438E+00  0.9065E+01
   4.542  0.4425E+00  0.9069E+01
   4.552  0.4413E+00  0.9074E+01
   4.562  0.4402E+00  0.9078E+01
   4.572  0.4392E+00  0.9082E+01
   4.582  0.4383E+00  0.9087E+01
   4.592  0.4374E+00  0.9091E+01
   4.602  0.4364E+00  0.9095E+01
   4.612  0.4353E+00  0.9100E+01
   4.622  0.4351E+00  0.9104E+01
   4.632  0.4342E+00  0.9109E+01
   4.642  0.4332E+00  0.9113E+01
   4.652  0.4321E+00  0.9117E+01
   4.662  0.4320E+00  0.9121E+01
   4.672  0.4317E+00  0.9126E+01
   4.682  0.4300E+00  0.9130E+01
   4.692  0.4284E+00  0.9134E+01
   4.702  0.4271E+00  0.9139E+01
   4.712  0.4270E+00  0.9143E+01
   4.722  0.4270E+00  0.9147E+01
   4.732  0.4270E+00  0.9151E+01
   4.742  0.4270E+00  0.9156E+01
   4.752  0.4270E+00  0.9160E+01
   4.762  0.4269E+00  0.9164E+01
   4.772  0.4268E+00  0.9169E+01
   4.782  0.4268E+00  0.9173E+01
   4.792  0.4267E+00  0.9177E+01
   4.802  0.4267E+00  0.9181E+01
   4.812  0.4266E+00  0.9186E+01
   4.822  0.4266E+00  0.9190E+01
   4.832  0.4266E+00  0.9194E+01
   4.842  0.4265E+00  0.9198E+01
   4.852  0.4265E+00  0.9203E+01
   4.862  0.4265E+00  0.9207E+01
   4.872  0.4265E+00  0.9211E+01
   4.882  0.4265E+00  0.9216E+01
   4.892  0.4266E+00  0.9220E+01
   4.902  0.4266E+00  0.9224E+01
   4.912  0.4267E+00  0.9228E+01
   4.922  0.4268E+00  0.9233E+01
   4.932  0.4268E+00  0.9237E+01
   4.942  0.4269E+00  0.9241E+01
   4.952  0.4270E+00  0.9245E+01
   4.962  0.4272E+00  0.9250E+01
   4.972  0.4273E+00  0.9254E+01
   4.982  0.4274E+00  0.9258E+01
   4.992  0.4276E+00  0.9262E+01
   5.002  0.4277E+00  0.9267E+01
   5.012  0.4279E+00  0.9271E+01
   5.022  0.4281E+00  0.9275E+01
   5.032  0.4283E+00  0.9280E+01
   5.042  0.4285E+00  0.9284E+01
   5.052  0.4288E+00  0.9288E+01
   5.062  0.4290E+00  0.9292E+01
   5.072  0.4293E+00  0.9297E+01
   5.082  0.4295E+00  0.9301E+01
   5.092  0.4298E+00  0.9305E+01
   5.102  0.4301E+00  0.9310E+01
   5.112  0.4304E+00  0.9314E+01
   5.122  0.4307E+00  0.9318E+01
   5.132  0.4310E+00  0.9323E+01
   5.142  0.4314E+00  0.9327E+01
   5.152  0.4317E+00  0.9331E+01
   5.162  0.4321E+00  0.9335E+01
   5.172  0.4325E+00  0.9340E+01
   5.182  0.4329E+00  0.9344E+01
   5.192  0.4333E+00  0.9348E+01
   5.202  0.4337E+00  0.9353E+01
   5.212  0.4341E+00  0.9357E+01
   5.222  0.4345E+00  0.9361E+01
   5.232  0.4350E+00  0.9366E+01
   5.242  0.4353E+00  0.9370E+01
   5.252  0.4357E+00  0.9375E+01
   5.262  0.4351E+00  0.9379E+01
   5.272  0.4237E+00  0.9383E+01
   5.282  0.3974E+00  0.9387E+01
   5.292  0.3578E+00  0.9391E+01
   5.302  0.3540E+00  0.9395E+01
   5.312  0.3719E+00  0.9398E+01
   5.322  0.3912E+00  0.9402E+01
   5.332  0.3869E+00  0.9406E+01
   5.342  0.3829E+00  0.9410E+01
   5.352  0.3811E+00  0.9414E+01
   5.362  0.3798E+00  0.9417E+01
   5.372  0.3789E+00  0.9421E+01
   5.382  0.3783E+00  0.9425E+01
   5.392  0.3779E+00  0.9429E+01
   5.402  0.3772E+00  0.9433E+01
   5.412  0.3708E+00  0.9436E+01
   5.422  0.3582E+00  0.9440E+01
   5.432  0.3480E+00  0.9443E+01
   5.442  0.3494E+00  0.9447E+01
   5.452  0.3627E+00  0.9451E+01
   5.462  0.3745E+00  0.9454E+01
   5.472  0.3838E+00  0.9458E+01
   5.482  0.3896E+00  0.9462E+01
   5.492  0.3913E+00  0.9466E+01
   5.502  0.3909E+00  0.9470E+01
   5.512  0.3906E+00  0.9474E+01
   5.522  0.3902E+00  0.9478E+01
   5.532  0.3900E+00  0.9481E+01
   5.542  0.3903E+00  0.9485E+01
   5.552  0.3906E+00  0.9489E+01
   5.562  0.3909E+00  0.9493E+01
   5.572  0.3912E+00  0.9497E+01
   5.582  0.3915E+00  0.9501E+01
   5.592  0.3918E+00  0.9505E+01
   5.602  0.3920E+00  0.9509E+01
   5.612  0.3923E+00  0.9513E+01
   5.622  0.3925E+00  0.9517E+01
   5.632  0.3928E+00  0.9521E+01
   5.642  0.3930E+00  0.9524E+01
   5.652  0.3933E+00  0.9528E+01
   5.662  0.3936E+00  0.9532E+01
   5.672  0.3939E+00  0.9536E+01
   5.682  0.3942E+00  0.9540E+01
   5.692  0.3946E+00  0.9544E+01
   5.702  0.3950E+00  0.9548E+01
   5.712  0.3954E+00  0.9552E+01
   5.722  0.3959E+00  0.9556E+01
   5.732  0.3965E+00  0.9560E+01
   5.742  0.3972E+00  0.9564E+01
   5.752  0.3977E+00  0.9568E+01
   5.762  0.3971E+00  0.9572E+01
   5.772  0.3953E+00  0.9576E+01
   5.782  0.3931E+00  0.9580E+01
   5.792  0.3921E+00  0.9584E+01
   5.802  0.3922E+00  0.9588E+01
   5.812  0.3926E+00  0.9592E+01
   5.822  0.3930E+00  0.9596E+01
   5.832  0.3935E+00  0.9599E+01
   5.842  0.3939E+00  0.9603E+01
   5.852  0.3947E+00  0.9607E+01
   5.862  0.3967E+00  0.9611E+01
   5.872  0.4000E+00  0.9615E+01
   5.882  0.4048E+00  0.9619E+01
   5.892  0.4113E+00  0.9623E+01
   5.902  0.4178E+00  0.9628E+01
   5.912  0.4240E+00  0.9632E+01
   5.922  0.4298E+00  0.9636E+01
   5.932  0.4372E+00  0.9640E+01
   5.942  0.4499E+00  0.9645E+01
   5.952  0.4680E+00  0.9649E+01
   5.962  0.4916E+00  0.9654E+01
   5.972  0.5168E+00  0.9659E+01
   5.982  0.5355E+00  0.9664E+01
   5.992  0.5479E+00  0.9670E+01
   6.002  0.5541E+00  0.9675E+01
   6.012  0.5553E+00  0.9681E+01
   6.022  0.5560E+00  0.9686E+01
   6.032  0.5567E+00  0.9692E+01
   6.042  0.5569E+00  0.9698E+01
   6.052  0.5566E+00  0.9703E+01
   6.062  0.5558E+00  0.9709E+01
   6.072  0.5544E+00  0.9714E+01
   6.082  0.5525E+00  0.9720E+01
   6.092  0.5506E+00  0.9725E+01
   6.102  0.5487E+00  0.9731E+01
   6.112  0.5467E+00  0.9736E+01
   6.122  0.5448E+00  0.9742E+01
   6.132  0.5428E+00  0.9747E+01
   6.142  0.5408E+00  0.9753E+01
   6.152  0.5388E+00  0.9758E+01
   6.162  0.5368E+00  0.9763E+01
   6.172  0.5347E+00  0.9769E+01
   6.182  0.5326E+00  0.9774E+01
   6.192  0.5306E+00  0.9779E+01
   6.202  0.5285E+00  0.9785E+01
   6.212  0.5263E+00  0.9790E+01
   6.222  0.5242E+00  0.9795E+01
   6.232  0.5221E+00  0.9800E+01
   6.242  0.5199E+00  0.9806E+01
   6.252  0.5177E+00  0.9811E+01
   6.262  0.5155E+00  0.9816E+01
   6.272  0.5133E+00  0.9821E+01
   6.282  0.5111E+00  0.9826E+01
   6.292  0.5088E+00  0.9831E+01
   6.302  0.5065E+00  0.9836E+01
   6.312  0.5042E+00  0.9842E+01
   6.322  0.5019E+00  0.9847E+01
   6.332  0.4996E+00  0.9852E+01
   6.342  0.4973E+00  0.9857E+01
   6.352  0.4949E+00  0.9862E+01
   6.362  0.4925E+00  0.9866E+01
   6.372  0.4902E+00  0.9871E+01
   6.382  0.4877E+00  0.9876E+01
   6.392  0.4853E+00  0.9881E+01
   6.402  0.4829E+00  0.9886E+01
   6.412  0.4804E+00  0.9891E+01
   6.422  0.4779E+00  0.9896E+01
   6.432  0.4754E+00  0.9900E+01
   6.442  0.4729E+00  0.9905E+01
   6.452  0.4704E+00  0.9910E+01
   6.462  0.4679E+00  0.9914E+01
   6.472  0.4653E+00  0.9919E+01
   6.482  0.4627E+00  0.9924E+01
   6.492  0.4600E+00  0.9928E+01
   6.502  0.4523E+00  0.9933E+01
   6.512  0.4442E+00  0.9937E+01
   6.522  0.4348E+00  0.9942E+01
   6.532  0.4194E+00  0.9946E+01
   6.542  0.4038E+00  0.9950E+01
   6.552  0.3882E+00  0.9954E+01
   6.562  0.3728E+00  0.9958E+01
   6.572  0.3572E+00  0.9962E+01
   6.582  0.3416E+00  0.9965E+01
   6.592  0.3258E+00  0.9968E+01
   6.602  0.3097E+00  0.9972E+01
   6.612  0.2938E+00  0.9975E+01
   6.622  0.2777E+00  0.9978E+01
   6.632  0.2612E+00  0.9980E+01
   6.642  0.2443E+00  0.9983E+01
   6.652  0.2271E+00  0.9985E+01
   6.662  0.2096E+00  0.9987E+01
   6.672  0.1918E+00  0.9989E+01
   6.682  0.1736E+00  0.9991E+01
   6.692  0.1552E+00  0.9993E+01
   6.702  0.1366E+00  0.9994E+01
   6.712  0.1181E+00  0.9996E+01
   6.722  0.9985E-01  0.9997E+01
   6.732  0.8134E-01  0.9998E+01
   6.742  0.6262E-01  0.9998E+01
   6.752  0.4946E-01  0.9999E+01
   6.762  0.4323E-01  0.9999E+01
   6.772  0.3835E-01  0.1000E+02
   6.782  0.3662E-01  0.1000E+02
   6.792  0.4093E-01  0.1000E+02
   6.802  0.4541E-01  0.1000E+02
   6.812  0.5380E-01  0.1000E+02
   6.822  0.6525E-01  0.1000E+02
   6.832  0.7681E-01  0.1000E+02
   6.842  0.8921E-01  0.1000E+02
   6.852  0.1024E+00  0.1000E+02
   6.862  0.1155E+00  0.1001E+02
   6.872  0.1286E+00  0.1001E+02
   6.882  0.1417E+00  0.1001E+02
   6.892  0.1547E+00  0.1001E+02
   6.902  0.1676E+00  0.1001E+02
   6.912  0.1804E+00  0.1001E+02
   6.922  0.1932E+00  0.1001E+02
   6.932  0.2059E+00  0.1002E+02
   6.942  0.2185E+00  0.1002E+02
   6.952  0.2310E+00  0.1002E+02
   6.962  0.2434E+00  0.1002E+02
   6.972  0.2557E+00  0.1003E+02
   6.982  0.2679E+00  0.1003E+02
   6.992  0.2800E+00  0.1003E+02
   7.002  0.2920E+00  0.1003E+02
   7.012  0.3039E+00  0.1004E+02
   7.022  0.3157E+00  0.1004E+02
   7.032  0.3274E+00  0.1004E+02
   7.042  0.3390E+00  0.1005E+02
   7.052  0.3506E+00  0.1005E+02
   7.062  0.3621E+00  0.1005E+02
   7.072  0.3741E+00  0.1006E+02
   7.082  0.3872E+00  0.1006E+02
   7.092  0.4016E+00  0.1007E+02
   7.102  0.4282E+00  0.1007E+02
   7.112  0.4690E+00  0.1007E+02
   7.122  0.5080E+00  0.1008E+02
   7.132  0.5452E+00  0.1008E+02
   7.142  0.5805E+00  0.1009E+02
   7.152  0.6140E+00  0.1010E+02
   7.162  0.6465E+00  0.1010E+02
   7.172  0.6778E+00  0.1011E+02
   7.182  0.7073E+00  0.1012E+02
   7.192  0.7348E+00  0.1012E+02
   7.202  0.7604E+00  0.1013E+02
   7.212  0.7842E+00  0.1014E+02
   7.222  0.8061E+00  0.1015E+02
   7.232  0.8263E+00  0.1015E+02
   7.242  0.8446E+00  0.1016E+02
   7.252  0.8606E+00  0.1017E+02
   7.262  0.8746E+00  0.1018E+02
   7.272  0.8816E+00  0.1019E+02
   7.282  0.8966E+00  0.1020E+02
   7.292  0.8876E+00  0.1021E+02
   7.302  0.8468E+00  0.1021E+02
   7.312  0.7958E+00  0.1022E+02
   7.322  0.7853E+00  0.1023E+02
   7.332  0.7787E+00  0.1024E+02
   7.342  0.7758E+00  0.1025E+02
   7.352  0.7729E+00  0.1025E+02
   7.362  0.7702E+00  0.1026E+02
   7.372  0.7676E+00  0.1027E+02
   7.382  0.7651E+00  0.1028E+02
   7.392  0.7628E+00  0.1029E+02
   7.402  0.7605E+00  0.1029E+02
   7.412  0.7584E+00  0.1030E+02
   7.422  0.7564E+00  0.1031E+02
   7.432  0.7545E+00  0.1032E+02
   7.442  0.7527E+00  0.1032E+02
   7.452  0.7510E+00  0.1033E+02
   7.462  0.7494E+00  0.1034E+02
   7.472  0.7480E+00  0.1035E+02
   7.482  0.7466E+00  0.1035E+02
   7.492  0.7454E+00  0.1036E+02
   7.502  0.7443E+00  0.1037E+02
   7.512  0.7433E+00  0.1038E+02
   7.522  0.7425E+00  0.1038E+02
   7.532  0.7417E+00  0.1039E+02
   7.542  0.7411E+00  0.1040E+02
   7.552  0.7405E+00  0.1040E+02
   7.562  0.7401E+00  0.1041E+02
   7.572  0.7398E+00  0.1042E+02
   7.582  0.7396E+00  0.1043E+02
   7.592  0.7396E+00  0.1043E+02
   7.602  0.7396E+00  0.1044E+02
   7.612  0.7398E+00  0.1045E+02
   7.622  0.7400E+00  0.1046E+02
   7.632  0.7404E+00  0.1046E+02
   7.642  0.7409E+00  0.1047E+02
   7.652  0.7416E+00  0.1048E+02
   7.662  0.7423E+00  0.1049E+02
   7.672  0.7431E+00  0.1049E+02
   7.682  0.7441E+00  0.1050E+02
   7.692  0.7449E+00  0.1051E+02
   7.702  0.7455E+00  0.1052E+02
   7.712  0.7458E+00  0.1052E+02
   7.722  0.7457E+00  0.1053E+02
   7.732  0.7350E+00  0.1054E+02
   7.742  0.7189E+00  0.1055E+02
   7.752  0.7043E+00  0.1055E+02
   7.762  0.6901E+00  0.1056E+02
   7.772  0.6796E+00  0.1057E+02
   7.782  0.6762E+00  0.1057E+02
   7.792  0.6727E+00  0.1058E+02
   7.802  0.6690E+00  0.1059E+02
   7.812  0.6650E+00  0.1059E+02
   7.822  0.6609E+00  0.1060E+02
   7.832  0.6566E+00  0.1061E+02
   7.842  0.6533E+00  0.1061E+02
   7.852  0.6514E+00  0.1062E+02
   7.862  0.6497E+00  0.1063E+02
   7.872  0.6495E+00  0.1063E+02
   7.882  0.6496E+00  0.1064E+02
   7.892  0.6497E+00  0.1065E+02
   7.902  0.6499E+00  0.1065E+02
   7.912  0.6472E+00  0.1066E+02
   7.922  0.6231E+00  0.1067E+02
   7.932  0.5832E+00  0.1067E+02
   7.942  0.5713E+00  0.1068E+02
   7.952  0.5849E+00  0.1068E+02
   7.962  0.5974E+00  0.1069E+02
   7.972  0.5938E+00  0.1069E+02
   7.982  0.5892E+00  0.1070E+02
   7.992  0.5870E+00  0.1071E+02
   8.002  0.5862E+00  0.1071E+02
   8.012  0.5863E+00  0.1072E+02
   8.022  0.5891E+00  0.1072E+02
   8.032  0.5946E+00  0.1073E+02
   8.042  0.6028E+00  0.1074E+02
   8.052  0.6116E+00  0.1074E+02
   8.062  0.6198E+00  0.1075E+02
   8.072  0.6273E+00  0.1075E+02
   8.082  0.6340E+00  0.1076E+02
   8.092  0.6403E+00  0.1077E+02
   8.102  0.6483E+00  0.1077E+02
   8.112  0.6589E+00  0.1078E+02
   8.122  0.6723E+00  0.1079E+02
   8.132  0.6886E+00  0.1079E+02
   8.142  0.7075E+00  0.1080E+02
   8.152  0.7288E+00  0.1081E+02
   8.162  0.7525E+00  0.1082E+02
   8.172  0.7752E+00  0.1082E+02
   8.182  0.7920E+00  0.1083E+02
   8.192  0.8039E+00  0.1084E+02
   8.202  0.8100E+00  0.1085E+02
   8.212  0.8101E+00  0.1085E+02
   8.222  0.8073E+00  0.1086E+02
   8.232  0.8043E+00  0.1087E+02
   8.242  0.8014E+00  0.1088E+02
   8.252  0.7993E+00  0.1089E+02
   8.262  0.7981E+00  0.1089E+02
   8.272  0.7976E+00  0.1090E+02
   8.282  0.8155E+00  0.1091E+02
   8.292  0.8342E+00  0.1092E+02
   8.302  0.8523E+00  0.1093E+02
   8.312  0.8788E+00  0.1094E+02
   8.322  0.9059E+00  0.1095E+02
   8.332  0.9394E+00  0.1095E+02
   8.342  0.9800E+00  0.1096E+02
   8.352  0.1028E+01  0.1097E+02
   8.362  0.1079E+01  0.1098E+02
   8.372  0.1125E+01  0.1100E+02
   8.382  0.1105E+01  0.1101E+02
   8.392  0.1079E+01  0.1102E+02
   8.402  0.1063E+01  0.1103E+02
   8.412  0.1042E+01  0.1104E+02
   8.422  0.1017E+01  0.1105E+02
   8.432  0.1006E+01  0.1106E+02
   8.442  0.9993E+00  0.1107E+02
   8.452  0.9940E+00  0.1108E+02
   8.462  0.9897E+00  0.1109E+02
   8.472  0.9855E+00  0.1110E+02
   8.482  0.9812E+00  0.1111E+02
   8.492  0.9767E+00  0.1112E+02
   8.502  0.9677E+00  0.1113E+02
   8.512  0.9506E+00  0.1114E+02
   8.522  0.9330E+00  0.1115E+02
   8.532  0.9194E+00  0.1116E+02
   8.542  0.9093E+00  0.1117E+02
   8.552  0.9011E+00  0.1117E+02
   8.562  0.8935E+00  0.1118E+02
   8.572  0.8868E+00  0.1119E+02
   8.582  0.8823E+00  0.1120E+02
   8.592  0.8797E+00  0.1121E+02
   8.602  0.8785E+00  0.1122E+02
   8.612  0.8771E+00  0.1123E+02
   8.622  0.8755E+00  0.1124E+02
   8.632  0.8735E+00  0.1125E+02
   8.642  0.8507E+00  0.1125E+02
   8.652  0.8308E+00  0.1126E+02
   8.662  0.8096E+00  0.1127E+02
   8.672  0.7495E+00  0.1128E+02
   8.682  0.7188E+00  0.1129E+02
   8.692  0.7137E+00  0.1129E+02
   8.702  0.7175E+00  0.1130E+02
   8.712  0.7214E+00  0.1131E+02
   8.722  0.7271E+00  0.1131E+02
   8.732  0.7331E+00  0.1132E+02
   8.742  0.7390E+00  0.1133E+02
   8.752  0.7457E+00  0.1134E+02
   8.762  0.7524E+00  0.1134E+02
   8.772  0.7588E+00  0.1135E+02
   8.782  0.7652E+00  0.1136E+02
   8.792  0.7715E+00  0.1137E+02
   8.802  0.7776E+00  0.1137E+02
   8.812  0.7836E+00  0.1138E+02
   8.822  0.7894E+00  0.1139E+02
   8.832  0.7951E+00  0.1140E+02
   8.842  0.8005E+00  0.1141E+02
   8.852  0.8058E+00  0.1141E+02
   8.862  0.8107E+00  0.1142E+02
   8.872  0.8154E+00  0.1143E+02
   8.882  0.8201E+00  0.1144E+02
   8.892  0.8255E+00  0.1145E+02
   8.902  0.8320E+00  0.1146E+02
   8.912  0.8469E+00  0.1146E+02
   8.922  0.8702E+00  0.1147E+02
   8.932  0.8908E+00  0.1148E+02
   8.942  0.9165E+00  0.1149E+02
   8.952  0.9728E+00  0.1150E+02
   8.962  0.1089E+01  0.1151E+02
   8.972  0.1255E+01  0.1152E+02
   8.982  0.1408E+01  0.1153E+02
   8.992  0.1506E+01  0.1155E+02
   9.002  0.1588E+01  0.1156E+02
   9.012  0.1683E+01  0.1158E+02
   9.022  0.1770E+01  0.1160E+02
   9.032  0.1761E+01  0.1162E+02
   9.042  0.1850E+01  0.1163E+02
   9.052  0.1968E+01  0.1165E+02
   9.062  0.2042E+01  0.1167E+02
   9.072  0.2000E+01  0.1169E+02
   9.082  0.1968E+01  0.1171E+02
   9.092  0.1945E+01  0.1173E+02
   9.102  0.1799E+01  0.1175E+02
   9.112  0.1769E+01  0.1177E+02
   9.122  0.1768E+01  0.1179E+02
   9.132  0.1754E+01  0.1181E+02
   9.142  0.1725E+01  0.1182E+02
   9.152  0.1693E+01  0.1184E+02
   9.162  0.1664E+01  0.1186E+02
   9.172  0.1635E+01  0.1187E+02
   9.182  0.1605E+01  0.1189E+02
   9.192  0.1575E+01  0.1191E+02
   9.202  0.1547E+01  0.1192E+02
   9.212  0.1525E+01  0.1194E+02
   9.222  0.1571E+01  0.1195E+02
   9.232  0.2101E+01  0.1197E+02
   9.242  0.3114E+01  0.1200E+02
   9.252  0.4124E+01  0.1203E+02
   9.262  0.2066E+01  0.1206E+02
   9.272  0.2086E+01  0.1208E+02
   9.282  0.2061E+01  0.1211E+02
   9.292  0.2038E+01  0.1213E+02
   9.302  0.2015E+01  0.1215E+02
   9.312  0.1992E+01  0.1217E+02
   9.322  0.1968E+01  0.1219E+02
   9.332  0.1944E+01  0.1221E+02
   9.342  0.1920E+01  0.1223E+02
   9.352  0.1895E+01  0.1224E+02
   9.362  0.1870E+01  0.1226E+02
   9.372  0.1844E+01  0.1228E+02
   9.382  0.1818E+01  0.1230E+02
   9.392  0.1792E+01  0.1232E+02
   9.402  0.1765E+01  0.1234E+02
   9.412  0.1737E+01  0.1235E+02
   9.422  0.1709E+01  0.1237E+02
   9.432  0.1679E+01  0.1239E+02
   9.442  0.1649E+01  0.1240E+02
   9.452  0.1619E+01  0.1242E+02
   9.462  0.1588E+01  0.1244E+02
   9.472  0.1562E+01  0.1245E+02
   9.482  0.1535E+01  0.1247E+02
   9.492  0.1507E+01  0.1248E+02
   9.502  0.1481E+01  0.1250E+02
   9.512  0.1458E+01  0.1251E+02
   9.522  0.1436E+01  0.1253E+02
   9.532  0.1413E+01  0.1254E+02
   9.542  0.1375E+01  0.1256E+02
   9.552  0.1325E+01  0.1257E+02
   9.562  0.1283E+01  0.1258E+02
   9.572  0.1247E+01  0.1259E+02
   9.582  0.1216E+01  0.1261E+02
   9.592  0.1182E+01  0.1262E+02
   9.602  0.1112E+01  0.1263E+02
   9.612  0.1074E+01  0.1264E+02
   9.622  0.1053E+01  0.1265E+02
   9.632  0.1042E+01  0.1266E+02
   9.642  0.1126E+01  0.1267E+02
   9.652  0.1153E+01  0.1268E+02
   9.662  0.1163E+01  0.1270E+02
   9.672  0.1087E+01  0.1271E+02
   9.682  0.1054E+01  0.1272E+02
   9.692  0.1058E+01  0.1273E+02
   9.702  0.1064E+01  0.1274E+02
   9.712  0.1072E+01  0.1275E+02
   9.722  0.1097E+01  0.1276E+02
   9.732  0.1119E+01  0.1277E+02
   9.742  0.1218E+01  0.1278E+02
   9.752  0.1304E+01  0.1280E+02
   9.762  0.1346E+01  0.1281E+02
   9.772  0.1348E+01  0.1282E+02
   9.782  0.1340E+01  0.1284E+02
   9.792  0.1342E+01  0.1285E+02
   9.802  0.1344E+01  0.1286E+02
   9.812  0.1345E+01  0.1288E+02
   9.822  0.1341E+01  0.1289E+02
   9.832  0.1337E+01  0.1290E+02
   9.842  0.1333E+01  0.1292E+02
   9.852  0.1330E+01  0.1293E+02
   9.862  0.1328E+01  0.1294E+02
   9.872  0.1325E+01  0.1296E+02
   9.882  0.1323E+01  0.1297E+02
   9.892  0.1321E+01  0.1298E+02
   9.902  0.1319E+01  0.1300E+02
   9.912  0.1317E+01  0.1301E+02
   9.922  0.1316E+01  0.1302E+02
   9.932  0.1315E+01  0.1304E+02
   9.942  0.1314E+01  0.1305E+02
   9.952  0.1313E+01  0.1306E+02
   9.962  0.1313E+01  0.1308E+02
   9.972  0.1312E+01  0.1309E+02
   9.982  0.1313E+01  0.1310E+02
   9.992  0.1315E+01  0.1311E+02
  10.002  0.1317E+01  0.1313E+02
  10.012  0.1320E+01  0.1314E+02
  10.022  0.1323E+01  0.1315E+02
  10.032  0.1325E+01  0.1317E+02
  10.042  0.1327E+01  0.1318E+02
  10.052  0.1329E+01  0.1319E+02
  10.062  0.1331E+01  0.1321E+02
  10.072  0.1334E+01  0.1322E+02
  10.082  0.1338E+01  0.1323E+02
  10.092  0.1340E+01  0.1325E+02
  10.102  0.1343E+01  0.1326E+02
  10.112  0.1345E+01  0.1327E+02
  10.122  0.1348E+01  0.1329E+02
  10.132  0.1350E+01  0.1330E+02
  10.142  0.1353E+01  0.1331E+02
  10.152  0.1342E+01  0.1333E+02
  10.162  0.1332E+01  0.1334E+02
  10.172  0.1310E+01  0.1335E+02
  10.182  0.1282E+01  0.1337E+02
  10.192  0.1257E+01  0.1338E+02
  10.202  0.1232E+01  0.1339E+02
  10.212  0.1207E+01  0.1340E+02
  10.222  0.1181E+01  0.1342E+02
  10.232  0.1154E+01  0.1343E+02
  10.242  0.1126E+01  0.1344E+02
  10.252  0.1098E+01  0.1345E+02
  10.262  0.1070E+01  0.1346E+02
  10.272  0.1040E+01  0.1347E+02
  10.282  0.1010E+01  0.1348E+02
  10.292  0.9789E+00  0.1349E+02
  10.302  0.9470E+00  0.1350E+02
  10.312  0.9138E+00  0.1351E+02
  10.322  0.8807E+00  0.1352E+02
  10.332  0.8650E+00  0.1353E+02
  10.342  0.8525E+00  0.1354E+02
  10.352  0.8398E+00  0.1355E+02
  10.362  0.8269E+00  0.1355E+02
  10.372  0.8138E+00  0.1356E+02
  10.382  0.8010E+00  0.1357E+02
  10.392  0.7988E+00  0.1358E+02
  10.402  0.7975E+00  0.1359E+02
  10.412  0.7963E+00  0.1359E+02
  10.422  0.7952E+00  0.1360E+02
  10.432  0.7942E+00  0.1361E+02
  10.442  0.7933E+00  0.1362E+02
  10.452  0.7934E+00  0.1363E+02
  10.462  0.7940E+00  0.1363E+02
  10.472  0.7947E+00  0.1364E+02
  10.482  0.7954E+00  0.1365E+02
  10.492  0.7962E+00  0.1366E+02
  10.502  0.7960E+00  0.1367E+02
  10.512  0.7946E+00  0.1367E+02
  10.522  0.7931E+00  0.1368E+02
  10.532  0.7915E+00  0.1369E+02
  10.542  0.7899E+00  0.1370E+02
  10.552  0.7882E+00  0.1371E+02
  10.562  0.7867E+00  0.1371E+02
  10.572  0.7858E+00  0.1372E+02
  10.582  0.7851E+00  0.1373E+02
  10.592  0.7841E+00  0.1374E+02
  10.602  0.7828E+00  0.1375E+02
  10.612  0.7807E+00  0.1375E+02
  10.622  0.7778E+00  0.1376E+02
  10.632  0.7746E+00  0.1377E+02
  10.642  0.7711E+00  0.1378E+02
  10.652  0.7678E+00  0.1378E+02
  10.662  0.7648E+00  0.1379E+02
  10.672  0.7620E+00  0.1380E+02
  10.682  0.7594E+00  0.1381E+02
  10.692  0.7571E+00  0.1381E+02
  10.702  0.7558E+00  0.1382E+02
  10.712  0.7566E+00  0.1383E+02
  10.722  0.7603E+00  0.1384E+02
  10.732  0.7676E+00  0.1384E+02
  10.742  0.7783E+00  0.1385E+02
  10.752  0.7917E+00  0.1386E+02
  10.762  0.8056E+00  0.1387E+02
  10.772  0.8188E+00  0.1388E+02
  10.782  0.8300E+00  0.1388E+02
  10.792  0.8392E+00  0.1389E+02
  10.802  0.8472E+00  0.1390E+02
  10.812  0.8532E+00  0.1391E+02
  10.822  0.8573E+00  0.1392E+02
  10.832  0.8596E+00  0.1393E+02
  10.842  0.8597E+00  0.1394E+02
  10.852  0.8578E+00  0.1394E+02
  10.862  0.8554E+00  0.1395E+02
  10.872  0.8532E+00  0.1396E+02
  10.882  0.8510E+00  0.1397E+02
  10.892  0.8494E+00  0.1398E+02
  10.902  0.8479E+00  0.1399E+02
  10.912  0.8463E+00  0.1400E+02
  10.922  0.8441E+00  0.1400E+02
  10.932  0.8426E+00  0.1401E+02
  10.942  0.8574E+00  0.1402E+02
  10.952  0.8569E+00  0.1403E+02
  10.962  0.8539E+00  0.1404E+02
  10.972  0.8954E+00  0.1405E+02
  10.982  0.9773E+00  0.1406E+02
  10.992  0.9951E+00  0.1407E+02
  11.002  0.1008E+01  0.1408E+02
  11.012  0.1022E+01  0.1409E+02
  11.022  0.1037E+01  0.1410E+02
  11.032  0.1054E+01  0.1411E+02
  11.042  0.1072E+01  0.1412E+02
  11.052  0.1092E+01  0.1413E+02
  11.062  0.1114E+01  0.1414E+02
  11.072  0.1136E+01  0.1415E+02
  11.082  0.1159E+01  0.1416E+02
  11.092  0.1182E+01  0.1417E+02
  11.102  0.1205E+01  0.1419E+02
  11.112  0.1176E+01  0.1420E+02
  11.122  0.1049E+01  0.1421E+02
  11.132  0.9608E+00  0.1422E+02
  11.142  0.8960E+00  0.1423E+02
  11.152  0.8544E+00  0.1424E+02
  11.162  0.8448E+00  0.1425E+02
  11.172  0.8485E+00  0.1425E+02
  11.182  0.8502E+00  0.1426E+02
  11.192  0.8511E+00  0.1427E+02
  11.202  0.8511E+00  0.1428E+02
  11.212  0.8513E+00  0.1429E+02
  11.222  0.8515E+00  0.1430E+02
  11.232  0.8516E+00  0.1430E+02
  11.242  0.8516E+00  0.1431E+02
  11.252  0.8517E+00  0.1432E+02
  11.262  0.8517E+00  0.1433E+02
  11.272  0.8517E+00  0.1434E+02
  11.282  0.8516E+00  0.1435E+02
  11.292  0.8515E+00  0.1436E+02
  11.302  0.8514E+00  0.1436E+02
  11.312  0.8513E+00  0.1437E+02
  11.322  0.8511E+00  0.1438E+02
  11.332  0.8509E+00  0.1439E+02
  11.342  0.8507E+00  0.1440E+02
  11.352  0.8504E+00  0.1441E+02
  11.362  0.8501E+00  0.1442E+02
  11.372  0.8497E+00  0.1442E+02
  11.382  0.8492E+00  0.1443E+02
  11.392  0.8486E+00  0.1444E+02
  11.402  0.8477E+00  0.1445E+02
  11.412  0.8467E+00  0.1446E+02
  11.422  0.8464E+00  0.1447E+02
  11.432  0.8465E+00  0.1447E+02
  11.442  0.8450E+00  0.1448E+02
  11.452  0.8416E+00  0.1449E+02
  11.462  0.8373E+00  0.1450E+02
  11.472  0.8336E+00  0.1451E+02
  11.482  0.8299E+00  0.1452E+02
  11.492  0.8265E+00  0.1453E+02
  11.502  0.8239E+00  0.1453E+02
  11.512  0.8212E+00  0.1454E+02
  11.522  0.8186E+00  0.1455E+02
  11.532  0.8158E+00  0.1456E+02
  11.542  0.8131E+00  0.1457E+02
  11.552  0.8103E+00  0.1457E+02
  11.562  0.8075E+00  0.1458E+02
  11.572  0.8047E+00  0.1459E+02
  11.582  0.8018E+00  0.1460E+02
  11.592  0.7998E+00  0.1461E+02
  11.602  0.7999E+00  0.1461E+02
  11.612  0.8005E+00  0.1462E+02
  11.622  0.8044E+00  0.1463E+02
  11.632  0.8081E+00  0.1464E+02
  11.642  0.8113E+00  0.1465E+02
  11.652  0.8144E+00  0.1465E+02
  11.662  0.8172E+00  0.1466E+02
  11.672  0.8200E+00  0.1467E+02
  11.682  0.8226E+00  0.1468E+02
  11.692  0.8251E+00  0.1469E+02
  11.702  0.8275E+00  0.1470E+02
  11.712  0.8305E+00  0.1470E+02
  11.722  0.8339E+00  0.1471E+02
  11.732  0.8377E+00  0.1472E+02
  11.742  0.8425E+00  0.1473E+02
  11.752  0.8479E+00  0.1474E+02
  11.762  0.8537E+00  0.1475E+02
  11.772  0.8604E+00  0.1475E+02
  11.782  0.8685E+00  0.1476E+02
  11.792  0.8769E+00  0.1477E+02
  11.802  0.8857E+00  0.1478E+02
  11.812  0.8948E+00  0.1479E+02
  11.822  0.9042E+00  0.1480E+02
  11.832  0.9140E+00  0.1481E+02
  11.842  0.9241E+00  0.1482E+02
  11.852  0.9350E+00  0.1483E+02
  11.862  0.9464E+00  0.1484E+02
  11.872  0.9582E+00  0.1485E+02
  11.882  0.9704E+00  0.1485E+02
  11.892  0.9829E+00  0.1486E+02
  11.902  0.9969E+00  0.1487E+02
  11.912  0.1012E+01  0.1488E+02
  11.922  0.1484E+01  0.1490E+02
  11.932  0.1958E+01  0.1491E+02
  11.942  0.2015E+01  0.1493E+02
  11.952  0.1747E+01  0.1495E+02
  11.962  0.1509E+01  0.1497E+02
  11.972  0.1361E+01  0.1498E+02
  11.982  0.1307E+01  0.1500E+02
  11.992  0.1273E+01  0.1501E+02
  12.002  0.1181E+01  0.1502E+02
  12.012  0.1114E+01  0.1503E+02
  12.022  0.1061E+01  0.1504E+02
  12.032  0.1013E+01  0.1505E+02
  12.042  0.9643E+00  0.1506E+02
  12.052  0.9150E+00  0.1507E+02
  12.062  0.8752E+00  0.1508E+02
  12.072  0.8412E+00  0.1509E+02
  12.082  0.8150E+00  0.1510E+02
  12.092  0.7917E+00  0.1511E+02
  12.102  0.7694E+00  0.1512E+02
  12.112  0.7484E+00  0.1512E+02
  12.122  0.7314E+00  0.1513E+02
  12.132  0.7158E+00  0.1514E+02
  12.142  0.7015E+00  0.1514E+02
  12.152  0.6883E+00  0.1515E+02
  12.162  0.6762E+00  0.1516E+02
  12.172  0.6652E+00  0.1517E+02
  12.182  0.6553E+00  0.1517E+02
  12.192  0.6464E+00  0.1518E+02
  12.202  0.6387E+00  0.1518E+02
  12.212  0.6320E+00  0.1519E+02
  12.222  0.6256E+00  0.1520E+02
  12.232  0.6192E+00  0.1520E+02
  12.242  0.6131E+00  0.1521E+02
  12.252  0.6047E+00  0.1522E+02
  12.262  0.5950E+00  0.1522E+02
  12.272  0.5848E+00  0.1523E+02
  12.282  0.5750E+00  0.1523E+02
  12.292  0.5688E+00  0.1524E+02
  12.302  0.5653E+00  0.1524E+02
  12.312  0.5659E+00  0.1525E+02
  12.322  0.5743E+00  0.1526E+02
  12.332  0.5808E+00  0.1526E+02
  12.342  0.5856E+00  0.1527E+02
  12.352  0.5900E+00  0.1527E+02
  12.362  0.5945E+00  0.1528E+02
  12.372  0.6048E+00  0.1529E+02
  12.382  0.6296E+00  0.1529E+02
  12.392  0.6634E+00  0.1530E+02
  12.402  0.7032E+00  0.1531E+02
  12.412  0.7482E+00  0.1531E+02
  12.422  0.7980E+00  0.1532E+02
  12.432  0.8461E+00  0.1533E+02
  12.442  0.8669E+00  0.1534E+02
  12.452  0.8749E+00  0.1535E+02
  12.462  0.8721E+00  0.1535E+02
  12.472  0.8681E+00  0.1536E+02
  12.482  0.8637E+00  0.1537E+02
  12.492  0.8590E+00  0.1538E+02
  12.502  0.8538E+00  0.1539E+02
  12.512  0.8483E+00  0.1540E+02
  12.522  0.8423E+00  0.1541E+02
  12.532  0.8362E+00  0.1541E+02
  12.542  0.8301E+00  0.1542E+02
  12.552  0.8240E+00  0.1543E+02
  12.562  0.8179E+00  0.1544E+02
  12.572  0.8119E+00  0.1545E+02
  12.582  0.8058E+00  0.1546E+02
  12.592  0.7997E+00  0.1546E+02
  12.602  0.7937E+00  0.1547E+02
  12.612  0.7877E+00  0.1548E+02
  12.622  0.7817E+00  0.1549E+02
  12.632  0.7757E+00  0.1549E+02
  12.642  0.7697E+00  0.1550E+02
  12.652  0.7637E+00  0.1551E+02
  12.662  0.7577E+00  0.1552E+02
  12.672  0.7517E+00  0.1553E+02
  12.682  0.7458E+00  0.1553E+02
  12.692  0.7399E+00  0.1554E+02
  12.702  0.7339E+00  0.1555E+02
  12.712  0.7280E+00  0.1556E+02
  12.722  0.7221E+00  0.1556E+02
  12.732  0.7162E+00  0.1557E+02
  12.742  0.7103E+00  0.1558E+02
  12.752  0.7044E+00  0.1558E+02
  12.762  0.6986E+00  0.1559E+02
  12.772  0.6927E+00  0.1560E+02
  12.782  0.6869E+00  0.1560E+02
  12.792  0.6811E+00  0.1561E+02
  12.802  0.6752E+00  0.1562E+02
  12.812  0.6694E+00  0.1562E+02
  12.822  0.6636E+00  0.1563E+02
  12.832  0.6578E+00  0.1564E+02
  12.842  0.6521E+00  0.1564E+02
  12.852  0.6463E+00  0.1565E+02
  12.862  0.6406E+00  0.1566E+02
  12.872  0.6348E+00  0.1566E+02
  12.882  0.6291E+00  0.1567E+02
  12.892  0.6234E+00  0.1568E+02
  12.902  0.6176E+00  0.1568E+02
  12.912  0.6119E+00  0.1569E+02
  12.922  0.6063E+00  0.1570E+02
  12.932  0.6006E+00  0.1570E+02
  12.942  0.5949E+00  0.1571E+02
  12.952  0.5893E+00  0.1571E+02
  12.962  0.5836E+00  0.1572E+02
  12.972  0.5780E+00  0.1572E+02
  12.982  0.5724E+00  0.1573E+02
  12.992  0.5667E+00  0.1574E+02
  13.002  0.5611E+00  0.1574E+02
  13.012  0.5555E+00  0.1575E+02
  13.022  0.5500E+00  0.1575E+02
  13.032  0.5444E+00  0.1576E+02
  13.042  0.5388E+00  0.1576E+02
  13.052  0.5333E+00  0.1577E+02
  13.062  0.5278E+00  0.1577E+02
  13.072  0.5222E+00  0.1578E+02
  13.082  0.5167E+00  0.1578E+02
  13.092  0.5111E+00  0.1579E+02
  13.102  0.5054E+00  0.1580E+02
  13.112  0.4997E+00  0.1580E+02
  13.122  0.4939E+00  0.1581E+02
  13.132  0.4537E+00  0.1581E+02
  13.142  0.3831E+00  0.1581E+02
  13.152  0.4121E+00  0.1582E+02
  13.162  0.4982E+00  0.1582E+02
  13.172  0.4899E+00  0.1583E+02
  13.182  0.4836E+00  0.1583E+02
  13.192  0.5411E+00  0.1584E+02
  13.202  0.6899E+00  0.1584E+02
  13.212  0.8121E+00  0.1585E+02
  13.222  0.8863E+00  0.1586E+02
  13.232  0.9104E+00  0.1587E+02
  13.242  0.8645E+00  0.1588E+02
  13.252  0.7681E+00  0.1589E+02
  13.262  0.6714E+00  0.1589E+02
  13.272  0.1185E+01  0.1591E+02
  13.282  0.5349E+00  0.1592E+02
  13.292  0.4851E+00  0.1592E+02
  13.302  0.4422E+00  0.1593E+02
  13.312  0.4047E+00  0.1593E+02
  13.322  0.3726E+00  0.1594E+02
  13.332  0.3452E+00  0.1594E+02
  13.342  0.3222E+00  0.1594E+02
  13.352  0.3045E+00  0.1595E+02
  13.362  0.2882E+00  0.1595E+02
  13.372  0.2729E+00  0.1595E+02
  13.382  0.2587E+00  0.1596E+02
  13.392  0.2456E+00  0.1596E+02
  13.402  0.2336E+00  0.1596E+02
  13.412  0.2227E+00  0.1596E+02
  13.422  0.2129E+00  0.1596E+02
  13.432  0.2042E+00  0.1597E+02
  13.442  0.1965E+00  0.1597E+02
  13.452  0.1899E+00  0.1597E+02
  13.462  0.1842E+00  0.1597E+02
  13.472  0.1789E+00  0.1597E+02
  13.482  0.1737E+00  0.1598E+02
  13.492  0.1683E+00  0.1598E+02
  13.502  0.1628E+00  0.1598E+02
  13.512  0.1572E+00  0.1598E+02
  13.522  0.1514E+00  0.1598E+02
  13.532  0.1455E+00  0.1598E+02
  13.542  0.1395E+00  0.1599E+02
  13.552  0.1334E+00  0.1599E+02
  13.562  0.1272E+00  0.1599E+02
  13.572  0.1208E+00  0.1599E+02
  13.582  0.1143E+00  0.1599E+02
  13.592  0.1077E+00  0.1599E+02
  13.602  0.1010E+00  0.1599E+02
  13.612  0.9417E-01  0.1599E+02
  13.622  0.8720E-01  0.1599E+02
  13.632  0.8010E-01  0.1600E+02
  13.642  0.7289E-01  0.1600E+02
