#  E (eV)   dos(E)     Int dos(E) EFermi =    0.897 eV
 -18.626  0.1386E+00  0.2188E-02
 -18.616  0.1786E+00  0.3777E-02
 -18.606  0.2149E+00  0.5747E-02
 -18.596  0.2474E+00  0.8062E-02
 -18.586  0.2763E+00  0.1068E-01
 -18.576  0.3014E+00  0.1358E-01
 -18.566  0.3227E+00  0.1670E-01
 -18.556  0.3404E+00  0.2002E-01
 -18.546  0.3543E+00  0.2349E-01
 -18.536  0.3644E+00  0.2709E-01
 -18.526  0.3708E+00  0.3077E-01
 -18.516  0.3758E+00  0.3450E-01
 -18.506  0.3918E+00  0.3839E-01
 -18.496  0.3427E+00  0.4211E-01
 -18.486  0.2731E+00  0.4509E-01
 -18.476  0.2750E+00  0.4783E-01
 -18.466  0.2769E+00  0.5059E-01
 -18.456  0.2788E+00  0.5337E-01
 -18.446  0.2807E+00  0.5617E-01
 -18.436  0.2826E+00  0.5899E-01
 -18.426  0.2844E+00  0.6182E-01
 -18.416  0.2863E+00  0.6468E-01
 -18.406  0.2881E+00  0.6755E-01
 -18.396  0.2900E+00  0.7044E-01
 -18.386  0.2918E+00  0.7335E-01
 -18.376  0.2937E+00  0.7627E-01
 -18.366  0.2955E+00  0.7922E-01
 -18.356  0.2973E+00  0.8218E-01
 -18.346  0.2991E+00  0.8517E-01
 -18.336  0.3009E+00  0.8817E-01
 -18.326  0.3027E+00  0.9119E-01
 -18.316  0.3045E+00  0.9422E-01
 -18.306  0.3063E+00  0.9728E-01
 -18.296  0.3081E+00  0.1003E+00
 -18.286  0.3099E+00  0.1034E+00
 -18.276  0.3117E+00  0.1065E+00
 -18.266  0.3134E+00  0.1097E+00
 -18.256  0.3152E+00  0.1128E+00
 -18.246  0.3169E+00  0.1160E+00
 -18.236  0.3187E+00  0.1192E+00
 -18.226  0.3204E+00  0.1223E+00
 -18.216  0.3221E+00  0.1256E+00
 -18.206  0.3239E+00  0.1288E+00
 -18.196  0.3256E+00  0.1320E+00
 -18.186  0.3273E+00  0.1353E+00
 -18.176  0.3291E+00  0.1386E+00
 -18.166  0.3310E+00  0.1419E+00
 -18.156  0.3289E+00  0.1452E+00
 -18.146  0.3252E+00  0.1485E+00
 -18.136  0.3217E+00  0.1517E+00
 -18.126  0.3184E+00  0.1549E+00
 -18.116  0.3154E+00  0.1581E+00
 -18.106  0.3126E+00  0.1612E+00
 -18.096  0.3101E+00  0.1643E+00
 -18.086  0.3078E+00  0.1674E+00
 -18.076  0.3058E+00  0.1705E+00
 -18.066  0.3040E+00  0.1735E+00
 -18.056  0.3025E+00  0.1766E+00
 -18.046  0.3012E+00  0.1796E+00
 -18.036  0.3002E+00  0.1826E+00
 -18.026  0.2995E+00  0.1856E+00
 -18.016  0.2986E+00  0.1886E+00
 -18.006  0.2973E+00  0.1916E+00
 -17.996  0.2959E+00  0.1945E+00
 -17.986  0.2966E+00  0.1975E+00
 -17.976  0.2972E+00  0.2004E+00
 -17.966  0.2978E+00  0.2034E+00
 -17.956  0.2985E+00  0.2064E+00
 -17.946  0.2991E+00  0.2094E+00
 -17.936  0.2998E+00  0.2124E+00
 -17.926  0.3004E+00  0.2154E+00
 -17.916  0.3010E+00  0.2184E+00
 -17.906  0.3017E+00  0.2214E+00
 -17.896  0.3023E+00  0.2244E+00
 -17.886  0.3029E+00  0.2275E+00
 -17.876  0.3036E+00  0.2305E+00
 -17.866  0.3042E+00  0.2335E+00
 -17.856  0.3048E+00  0.2366E+00
 -17.846  0.3055E+00  0.2396E+00
 -17.836  0.3061E+00  0.2427E+00
 -17.826  0.3067E+00  0.2457E+00
 -17.816  0.3074E+00  0.2488E+00
 -17.806  0.3080E+00  0.2519E+00
 -17.796  0.3086E+00  0.2550E+00
 -17.786  0.3093E+00  0.2581E+00
 -17.776  0.3099E+00  0.2612E+00
 -17.766  0.3105E+00  0.2643E+00
 -17.756  0.3111E+00  0.2674E+00
 -17.746  0.3118E+00  0.2705E+00
 -17.736  0.3124E+00  0.2736E+00
 -17.726  0.3130E+00  0.2767E+00
 -17.716  0.3136E+00  0.2799E+00
 -17.706  0.3143E+00  0.2830E+00
 -17.696  0.3149E+00  0.2862E+00
 -17.686  0.3155E+00  0.2893E+00
 -17.676  0.3161E+00  0.2925E+00
 -17.666  0.3168E+00  0.2956E+00
 -17.656  0.3174E+00  0.2988E+00
 -17.646  0.3180E+00  0.3020E+00
 -17.636  0.3186E+00  0.3052E+00
 -17.626  0.3193E+00  0.3083E+00
 -17.616  0.3199E+00  0.3115E+00
 -17.606  0.3205E+00  0.3147E+00
 -17.596  0.3211E+00  0.3180E+00
 -17.586  0.3217E+00  0.3212E+00
 -17.576  0.3224E+00  0.3244E+00
 -17.566  0.3230E+00  0.3276E+00
 -17.556  0.3236E+00  0.3308E+00
 -17.546  0.3242E+00  0.3341E+00
 -17.536  0.3251E+00  0.3373E+00
 -17.526  0.3238E+00  0.3406E+00
 -17.516  0.3158E+00  0.3438E+00
 -17.506  0.3094E+00  0.3469E+00
 -17.496  0.3092E+00  0.3500E+00
 -17.486  0.3090E+00  0.3531E+00
 -17.476  0.3087E+00  0.3562E+00
 -17.466  0.3085E+00  0.3593E+00
 -17.456  0.3083E+00  0.3623E+00
 -17.446  0.3081E+00  0.3654E+00
 -17.436  0.3080E+00  0.3685E+00
 -17.426  0.3078E+00  0.3716E+00
 -17.416  0.3076E+00  0.3747E+00
 -17.406  0.3075E+00  0.3777E+00
 -17.396  0.3074E+00  0.3808E+00
 -17.386  0.3073E+00  0.3839E+00
 -17.376  0.3072E+00  0.3870E+00
 -17.366  0.3071E+00  0.3900E+00
 -17.356  0.3070E+00  0.3931E+00
 -17.346  0.3069E+00  0.3962E+00
 -17.336  0.3069E+00  0.3992E+00
 -17.326  0.3069E+00  0.4023E+00
 -17.316  0.3068E+00  0.4054E+00
 -17.306  0.3068E+00  0.4084E+00
 -17.296  0.3068E+00  0.4115E+00
 -17.286  0.3068E+00  0.4146E+00
 -17.276  0.3068E+00  0.4176E+00
 -17.266  0.3069E+00  0.4207E+00
 -17.256  0.3069E+00  0.4238E+00
 -17.246  0.3070E+00  0.4268E+00
 -17.236  0.3071E+00  0.4299E+00
 -17.226  0.3071E+00  0.4330E+00
 -17.216  0.3072E+00  0.4361E+00
 -17.206  0.3073E+00  0.4391E+00
 -17.196  0.3073E+00  0.4422E+00
 -17.186  0.3069E+00  0.4453E+00
 -17.176  0.3072E+00  0.4484E+00
 -17.166  0.3076E+00  0.4514E+00
 -17.156  0.3079E+00  0.4545E+00
 -17.146  0.3082E+00  0.4576E+00
 -17.136  0.3086E+00  0.4607E+00
 -17.126  0.3089E+00  0.4638E+00
 -17.116  0.3093E+00  0.4668E+00
 -17.106  0.3096E+00  0.4699E+00
 -17.096  0.3100E+00  0.4730E+00
 -17.086  0.3103E+00  0.4761E+00
 -17.076  0.3107E+00  0.4792E+00
 -17.066  0.3110E+00  0.4824E+00
 -17.056  0.3114E+00  0.4855E+00
 -17.046  0.3117E+00  0.4886E+00
 -17.036  0.3121E+00  0.4917E+00
 -17.026  0.3124E+00  0.4948E+00
 -17.016  0.3128E+00  0.4980E+00
 -17.006  0.3131E+00  0.5011E+00
 -16.996  0.3135E+00  0.5042E+00
 -16.986  0.3138E+00  0.5073E+00
 -16.976  0.3142E+00  0.5105E+00
 -16.966  0.3145E+00  0.5136E+00
 -16.956  0.3148E+00  0.5168E+00
 -16.946  0.3152E+00  0.5199E+00
 -16.936  0.3155E+00  0.5231E+00
 -16.926  0.3159E+00  0.5262E+00
 -16.916  0.3162E+00  0.5294E+00
 -16.906  0.3166E+00  0.5326E+00
 -16.896  0.3169E+00  0.5357E+00
 -16.886  0.3173E+00  0.5389E+00
 -16.876  0.3176E+00  0.5421E+00
 -16.866  0.3180E+00  0.5453E+00
 -16.856  0.3183E+00  0.5484E+00
 -16.846  0.3187E+00  0.5516E+00
 -16.836  0.3190E+00  0.5548E+00
 -16.826  0.3193E+00  0.5580E+00
 -16.816  0.3197E+00  0.5612E+00
 -16.806  0.3200E+00  0.5644E+00
 -16.796  0.3204E+00  0.5676E+00
 -16.786  0.3207E+00  0.5708E+00
 -16.776  0.3211E+00  0.5740E+00
 -16.766  0.3214E+00  0.5772E+00
 -16.756  0.3218E+00  0.5804E+00
 -16.746  0.3221E+00  0.5837E+00
 -16.736  0.3224E+00  0.5869E+00
 -16.726  0.3228E+00  0.5901E+00
 -16.716  0.3231E+00  0.5933E+00
 -16.706  0.3235E+00  0.5966E+00
 -16.696  0.3215E+00  0.5998E+00
 -16.686  0.3205E+00  0.6030E+00
 -16.676  0.3196E+00  0.6062E+00
 -16.666  0.3188E+00  0.6094E+00
 -16.656  0.3180E+00  0.6126E+00
 -16.646  0.3172E+00  0.6158E+00
 -16.636  0.3165E+00  0.6189E+00
 -16.626  0.3159E+00  0.6221E+00
 -16.616  0.3153E+00  0.6252E+00
 -16.606  0.3148E+00  0.6284E+00
 -16.596  0.3143E+00  0.6315E+00
 -16.586  0.3138E+00  0.6347E+00
 -16.576  0.3135E+00  0.6378E+00
 -16.566  0.3131E+00  0.6409E+00
 -16.556  0.3127E+00  0.6441E+00
 -16.546  0.3121E+00  0.6472E+00
 -16.536  0.3107E+00  0.6503E+00
 -16.526  0.3108E+00  0.6534E+00
 -16.516  0.3109E+00  0.6565E+00
 -16.506  0.3110E+00  0.6596E+00
 -16.496  0.3111E+00  0.6627E+00
 -16.486  0.3112E+00  0.6659E+00
 -16.476  0.3113E+00  0.6690E+00
 -16.466  0.3114E+00  0.6721E+00
 -16.456  0.3115E+00  0.6752E+00
 -16.446  0.3117E+00  0.6783E+00
 -16.436  0.3118E+00  0.6814E+00
 -16.426  0.3119E+00  0.6845E+00
 -16.416  0.3120E+00  0.6877E+00
 -16.406  0.3121E+00  0.6908E+00
 -16.396  0.3123E+00  0.6939E+00
 -16.386  0.3124E+00  0.6970E+00
 -16.376  0.3125E+00  0.7002E+00
 -16.366  0.3127E+00  0.7033E+00
 -16.356  0.3128E+00  0.7064E+00
 -16.346  0.3129E+00  0.7095E+00
 -16.336  0.3131E+00  0.7127E+00
 -16.326  0.3132E+00  0.7158E+00
 -16.316  0.3134E+00  0.7189E+00
 -16.306  0.3135E+00  0.7221E+00
 -16.296  0.3136E+00  0.7252E+00
 -16.286  0.3138E+00  0.7283E+00
 -16.276  0.3139E+00  0.7315E+00
 -16.266  0.3141E+00  0.7346E+00
 -16.256  0.3142E+00  0.7378E+00
 -16.246  0.3144E+00  0.7409E+00
 -16.236  0.3146E+00  0.7440E+00
 -16.226  0.3147E+00  0.7472E+00
 -16.216  0.3149E+00  0.7503E+00
 -16.206  0.3150E+00  0.7535E+00
 -16.196  0.3152E+00  0.7566E+00
 -16.186  0.3154E+00  0.7598E+00
 -16.176  0.3155E+00  0.7629E+00
 -16.166  0.3157E+00  0.7661E+00
 -16.156  0.3159E+00  0.7693E+00
 -16.146  0.3161E+00  0.7724E+00
 -16.136  0.3162E+00  0.7756E+00
 -16.126  0.3164E+00  0.7787E+00
 -16.116  0.3166E+00  0.7819E+00
 -16.106  0.3168E+00  0.7851E+00
 -16.096  0.3170E+00  0.7882E+00
 -16.086  0.3172E+00  0.7914E+00
 -16.076  0.3173E+00  0.7946E+00
 -16.066  0.3168E+00  0.7978E+00
 -16.056  0.3158E+00  0.8009E+00
 -16.046  0.3160E+00  0.8041E+00
 -16.036  0.3163E+00  0.8072E+00
 -16.026  0.3165E+00  0.8104E+00
 -16.016  0.3168E+00  0.8136E+00
 -16.006  0.3170E+00  0.8167E+00
 -15.996  0.3173E+00  0.8199E+00
 -15.986  0.3176E+00  0.8231E+00
 -15.976  0.3178E+00  0.8263E+00
 -15.966  0.3181E+00  0.8294E+00
 -15.956  0.3183E+00  0.8326E+00
 -15.946  0.3186E+00  0.8358E+00
 -15.936  0.3189E+00  0.8390E+00
 -15.926  0.3191E+00  0.8422E+00
 -15.916  0.3194E+00  0.8454E+00
 -15.906  0.3197E+00  0.8486E+00
 -15.896  0.3199E+00  0.8518E+00
 -15.886  0.3202E+00  0.8550E+00
 -15.876  0.3204E+00  0.8582E+00
 -15.866  0.3207E+00  0.8614E+00
 -15.856  0.3210E+00  0.8646E+00
 -15.846  0.3212E+00  0.8678E+00
 -15.836  0.3215E+00  0.8710E+00
 -15.826  0.3218E+00  0.8742E+00
 -15.816  0.3221E+00  0.8775E+00
 -15.806  0.3223E+00  0.8807E+00
 -15.796  0.3226E+00  0.8839E+00
 -15.786  0.3229E+00  0.8871E+00
 -15.776  0.3231E+00  0.8904E+00
 -15.766  0.3234E+00  0.8936E+00
 -15.756  0.3237E+00  0.8968E+00
 -15.746  0.3240E+00  0.9001E+00
 -15.736  0.3243E+00  0.9033E+00
 -15.726  0.3245E+00  0.9066E+00
 -15.716  0.3248E+00  0.9098E+00
 -15.706  0.3251E+00  0.9130E+00
 -15.696  0.3254E+00  0.9163E+00
 -15.686  0.3256E+00  0.9196E+00
 -15.676  0.3259E+00  0.9228E+00
 -15.666  0.3262E+00  0.9261E+00
 -15.656  0.3265E+00  0.9293E+00
 -15.646  0.3268E+00  0.9326E+00
 -15.636  0.3271E+00  0.9359E+00
 -15.626  0.3273E+00  0.9391E+00
 -15.616  0.3263E+00  0.9424E+00
 -15.606  0.3233E+00  0.9457E+00
 -15.596  0.3180E+00  0.9489E+00
 -15.586  0.3174E+00  0.9521E+00
 -15.576  0.3173E+00  0.9552E+00
 -15.566  0.3174E+00  0.9584E+00
 -15.556  0.3175E+00  0.9616E+00
 -15.546  0.3176E+00  0.9648E+00
 -15.536  0.3178E+00  0.9679E+00
 -15.526  0.3179E+00  0.9711E+00
 -15.516  0.3180E+00  0.9743E+00
 -15.506  0.3181E+00  0.9775E+00
 -15.496  0.3183E+00  0.9807E+00
 -15.486  0.3184E+00  0.9838E+00
 -15.476  0.3186E+00  0.9870E+00
 -15.466  0.3187E+00  0.9902E+00
 -15.456  0.3189E+00  0.9934E+00
 -15.446  0.3190E+00  0.9966E+00
 -15.436  0.3192E+00  0.9998E+00
 -15.426  0.3194E+00  0.1003E+01
 -15.416  0.3195E+00  0.1006E+01
 -15.406  0.3197E+00  0.1009E+01
 -15.396  0.3199E+00  0.1013E+01
 -15.386  0.3201E+00  0.1016E+01
 -15.376  0.3203E+00  0.1019E+01
 -15.366  0.3204E+00  0.1022E+01
 -15.356  0.3206E+00  0.1025E+01
 -15.346  0.3208E+00  0.1029E+01
 -15.336  0.3210E+00  0.1032E+01
 -15.326  0.3213E+00  0.1035E+01
 -15.316  0.3215E+00  0.1038E+01
 -15.306  0.3217E+00  0.1041E+01
 -15.296  0.3220E+00  0.1045E+01
 -15.286  0.3221E+00  0.1048E+01
 -15.276  0.3169E+00  0.1051E+01
 -15.266  0.3142E+00  0.1054E+01
 -15.256  0.3114E+00  0.1057E+01
 -15.246  0.3097E+00  0.1060E+01
 -15.236  0.3099E+00  0.1064E+01
 -15.226  0.3102E+00  0.1067E+01
 -15.216  0.3105E+00  0.1070E+01
 -15.206  0.3107E+00  0.1073E+01
 -15.196  0.3110E+00  0.1076E+01
 -15.186  0.3112E+00  0.1079E+01
 -15.176  0.3115E+00  0.1082E+01
 -15.166  0.3117E+00  0.1085E+01
 -15.156  0.3120E+00  0.1088E+01
 -15.146  0.3123E+00  0.1092E+01
 -15.136  0.3126E+00  0.1095E+01
 -15.126  0.3128E+00  0.1098E+01
 -15.116  0.3131E+00  0.1101E+01
 -15.106  0.3134E+00  0.1104E+01
 -15.096  0.3137E+00  0.1107E+01
 -15.086  0.3140E+00  0.1110E+01
 -15.076  0.3144E+00  0.1113E+01
 -15.066  0.3147E+00  0.1117E+01
 -15.056  0.3150E+00  0.1120E+01
 -15.046  0.3154E+00  0.1123E+01
 -15.036  0.3157E+00  0.1126E+01
 -15.026  0.3160E+00  0.1129E+01
 -15.016  0.3164E+00  0.1132E+01
 -15.006  0.3168E+00  0.1136E+01
 -14.996  0.3171E+00  0.1139E+01
 -14.986  0.3175E+00  0.1142E+01
 -14.976  0.3179E+00  0.1145E+01
 -14.966  0.3183E+00  0.1148E+01
 -14.956  0.3187E+00  0.1151E+01
 -14.946  0.3191E+00  0.1155E+01
 -14.936  0.3195E+00  0.1158E+01
 -14.926  0.3199E+00  0.1161E+01
 -14.916  0.3203E+00  0.1164E+01
 -14.906  0.3207E+00  0.1167E+01
 -14.896  0.3212E+00  0.1171E+01
 -14.886  0.3216E+00  0.1174E+01
 -14.876  0.3220E+00  0.1177E+01
 -14.866  0.3225E+00  0.1180E+01
 -14.856  0.3229E+00  0.1184E+01
 -14.846  0.3234E+00  0.1187E+01
 -14.836  0.3239E+00  0.1190E+01
 -14.826  0.3244E+00  0.1193E+01
 -14.816  0.3248E+00  0.1196E+01
 -14.806  0.3253E+00  0.1200E+01
 -14.796  0.3258E+00  0.1203E+01
 -14.786  0.3263E+00  0.1206E+01
 -14.776  0.3268E+00  0.1210E+01
 -14.766  0.3273E+00  0.1213E+01
 -14.756  0.3279E+00  0.1216E+01
 -14.746  0.3284E+00  0.1219E+01
 -14.736  0.3289E+00  0.1223E+01
 -14.726  0.3295E+00  0.1226E+01
 -14.716  0.3300E+00  0.1229E+01
 -14.706  0.3306E+00  0.1233E+01
 -14.696  0.3311E+00  0.1236E+01
 -14.686  0.3318E+00  0.1239E+01
 -14.676  0.3320E+00  0.1242E+01
 -14.666  0.3297E+00  0.1246E+01
 -14.656  0.3272E+00  0.1249E+01
 -14.646  0.3263E+00  0.1252E+01
 -14.636  0.3257E+00  0.1256E+01
 -14.626  0.3250E+00  0.1259E+01
 -14.616  0.3244E+00  0.1262E+01
 -14.606  0.3240E+00  0.1265E+01
 -14.596  0.3248E+00  0.1269E+01
 -14.586  0.3255E+00  0.1272E+01
 -14.576  0.3262E+00  0.1275E+01
 -14.566  0.3269E+00  0.1278E+01
 -14.556  0.3276E+00  0.1282E+01
 -14.546  0.3283E+00  0.1285E+01
 -14.536  0.3290E+00  0.1288E+01
 -14.526  0.3297E+00  0.1291E+01
 -14.516  0.3304E+00  0.1295E+01
 -14.506  0.3311E+00  0.1298E+01
 -14.496  0.3317E+00  0.1301E+01
 -14.486  0.3324E+00  0.1305E+01
 -14.476  0.3331E+00  0.1308E+01
 -14.466  0.3337E+00  0.1311E+01
 -14.456  0.3344E+00  0.1315E+01
 -14.446  0.3351E+00  0.1318E+01
 -14.436  0.3358E+00  0.1321E+01
 -14.426  0.3365E+00  0.1325E+01
 -14.416  0.3372E+00  0.1328E+01
 -14.406  0.3379E+00  0.1332E+01
 -14.396  0.3387E+00  0.1335E+01
 -14.386  0.3392E+00  0.1338E+01
 -14.376  0.3395E+00  0.1342E+01
 -14.366  0.3384E+00  0.1345E+01
 -14.356  0.3288E+00  0.1348E+01
 -14.346  0.3199E+00  0.1352E+01
 -14.336  0.3127E+00  0.1355E+01
 -14.326  0.3155E+00  0.1358E+01
 -14.316  0.3208E+00  0.1361E+01
 -14.306  0.3255E+00  0.1364E+01
 -14.296  0.3296E+00  0.1368E+01
 -14.286  0.3331E+00  0.1371E+01
 -14.276  0.3360E+00  0.1374E+01
 -14.266  0.3384E+00  0.1378E+01
 -14.256  0.3402E+00  0.1381E+01
 -14.246  0.3421E+00  0.1384E+01
 -14.236  0.3450E+00  0.1388E+01
 -14.226  0.3486E+00  0.1391E+01
 -14.216  0.3407E+00  0.1395E+01
 -14.206  0.3313E+00  0.1398E+01
 -14.196  0.3277E+00  0.1401E+01
 -14.186  0.3254E+00  0.1405E+01
 -14.176  0.3231E+00  0.1408E+01
 -14.166  0.3208E+00  0.1411E+01
 -14.156  0.3196E+00  0.1414E+01
 -14.146  0.3215E+00  0.1418E+01
 -14.136  0.3233E+00  0.1421E+01
 -14.126  0.3251E+00  0.1424E+01
 -14.116  0.3268E+00  0.1427E+01
 -14.106  0.3286E+00  0.1431E+01
 -14.096  0.3303E+00  0.1434E+01
 -14.086  0.3320E+00  0.1437E+01
 -14.076  0.3336E+00  0.1441E+01
 -14.066  0.3353E+00  0.1444E+01
 -14.056  0.3369E+00  0.1447E+01
 -14.046  0.3385E+00  0.1451E+01
 -14.036  0.3402E+00  0.1454E+01
 -14.026  0.3418E+00  0.1457E+01
 -14.016  0.3435E+00  0.1461E+01
 -14.006  0.3452E+00  0.1464E+01
 -13.996  0.3470E+00  0.1468E+01
 -13.986  0.3487E+00  0.1471E+01
 -13.976  0.3505E+00  0.1475E+01
 -13.966  0.3524E+00  0.1478E+01
 -13.956  0.3542E+00  0.1482E+01
 -13.946  0.3561E+00  0.1485E+01
 -13.936  0.3580E+00  0.1489E+01
 -13.926  0.3600E+00  0.1493E+01
 -13.916  0.3619E+00  0.1496E+01
 -13.906  0.3639E+00  0.1500E+01
 -13.896  0.3660E+00  0.1503E+01
 -13.886  0.3680E+00  0.1507E+01
 -13.876  0.3701E+00  0.1511E+01
 -13.866  0.3722E+00  0.1514E+01
 -13.856  0.3744E+00  0.1518E+01
 -13.846  0.3766E+00  0.1522E+01
 -13.836  0.3788E+00  0.1526E+01
 -13.826  0.3810E+00  0.1530E+01
 -13.816  0.3832E+00  0.1533E+01
 -13.806  0.3855E+00  0.1537E+01
 -13.796  0.3880E+00  0.1541E+01
 -13.786  0.3893E+00  0.1545E+01
 -13.776  0.3853E+00  0.1549E+01
 -13.766  0.3799E+00  0.1553E+01
 -13.756  0.3745E+00  0.1556E+01
 -13.746  0.3690E+00  0.1560E+01
 -13.736  0.3638E+00  0.1564E+01
 -13.726  0.3606E+00  0.1567E+01
 -13.716  0.3584E+00  0.1571E+01
 -13.706  0.3562E+00  0.1575E+01
 -13.696  0.3642E+00  0.1578E+01
 -13.686  0.3923E+00  0.1582E+01
 -13.676  0.4362E+00  0.1586E+01
 -13.666  0.4767E+00  0.1591E+01
 -13.656  0.5112E+00  0.1596E+01
 -13.646  0.5400E+00  0.1601E+01
 -13.636  0.5629E+00  0.1606E+01
 -13.626  0.5855E+00  0.1612E+01
 -13.616  0.6079E+00  0.1618E+01
 -13.606  0.6237E+00  0.1624E+01
 -13.596  0.6329E+00  0.1631E+01
 -13.586  0.6354E+00  0.1637E+01
 -13.576  0.6313E+00  0.1643E+01
 -13.566  0.6212E+00  0.1649E+01
 -13.556  0.6098E+00  0.1656E+01
 -13.546  0.5982E+00  0.1662E+01
 -13.536  0.5864E+00  0.1668E+01
 -13.526  0.5744E+00  0.1673E+01
 -13.516  0.5623E+00  0.1679E+01
 -13.506  0.5499E+00  0.1685E+01
 -13.496  0.5373E+00  0.1690E+01
 -13.486  0.5246E+00  0.1695E+01
 -13.476  0.5116E+00  0.1701E+01
 -13.466  0.4985E+00  0.1706E+01
 -13.456  0.4851E+00  0.1711E+01
 -13.446  0.4716E+00  0.1715E+01
 -13.436  0.4579E+00  0.1720E+01
 -13.426  0.4439E+00  0.1725E+01
 -13.416  0.4298E+00  0.1729E+01
 -13.406  0.4155E+00  0.1733E+01
 -13.396  0.4010E+00  0.1737E+01
 -13.386  0.3863E+00  0.1741E+01
 -13.376  0.3714E+00  0.1745E+01
 -13.366  0.3562E+00  0.1749E+01
 -13.356  0.3410E+00  0.1752E+01
 -13.346  0.3268E+00  0.1755E+01
 -13.336  0.3219E+00  0.1759E+01
 -13.326  0.3171E+00  0.1762E+01
 -13.316  0.3123E+00  0.1765E+01
 -13.306  0.3075E+00  0.1768E+01
 -13.296  0.3026E+00  0.1771E+01
 -13.286  0.2977E+00  0.1774E+01
 -13.276  0.2928E+00  0.1777E+01
 -13.266  0.2881E+00  0.1780E+01
 -13.256  0.2854E+00  0.1783E+01
 -13.246  0.2831E+00  0.1786E+01
 -13.236  0.2808E+00  0.1788E+01
 -13.226  0.2786E+00  0.1791E+01
 -13.216  0.2765E+00  0.1794E+01
 -13.206  0.2743E+00  0.1797E+01
 -13.196  0.2722E+00  0.1800E+01
 -13.186  0.2701E+00  0.1802E+01
 -13.176  0.2680E+00  0.1805E+01
 -13.166  0.2659E+00  0.1808E+01
 -13.156  0.2638E+00  0.1810E+01
 -13.146  0.2616E+00  0.1813E+01
 -13.136  0.2595E+00  0.1815E+01
 -13.126  0.2574E+00  0.1818E+01
 -13.116  0.2552E+00  0.1821E+01
 -13.106  0.2531E+00  0.1823E+01
 -13.096  0.2509E+00  0.1826E+01
 -13.086  0.2488E+00  0.1828E+01
 -13.076  0.2466E+00  0.1831E+01
 -13.066  0.2444E+00  0.1833E+01
 -13.056  0.2422E+00  0.1836E+01
 -13.046  0.2400E+00  0.1838E+01
 -13.036  0.2378E+00  0.1840E+01
 -13.026  0.2355E+00  0.1843E+01
 -13.016  0.2333E+00  0.1845E+01
 -13.006  0.2310E+00  0.1847E+01
 -12.996  0.2288E+00  0.1850E+01
 -12.986  0.2265E+00  0.1852E+01
 -12.976  0.2242E+00  0.1854E+01
 -12.966  0.2220E+00  0.1856E+01
 -12.956  0.2197E+00  0.1859E+01
 -12.946  0.2173E+00  0.1861E+01
 -12.936  0.2151E+00  0.1863E+01
 -12.926  0.2113E+00  0.1865E+01
 -12.916  0.2372E+00  0.1867E+01
 -12.906  0.2635E+00  0.1870E+01
 -12.896  0.2790E+00  0.1873E+01
 -12.886  0.3020E+00  0.1876E+01
 -12.876  0.3658E+00  0.1879E+01
 -12.866  0.4308E+00  0.1883E+01
 -12.856  0.4910E+00  0.1887E+01
 -12.846  0.5533E+00  0.1893E+01
 -12.836  0.5722E+00  0.1898E+01
 -12.826  0.5259E+00  0.1904E+01
 -12.816  0.4518E+00  0.1909E+01
 -12.806  0.3831E+00  0.1913E+01
 -12.796  0.3162E+00  0.1916E+01
 -12.786  0.2499E+00  0.1919E+01
 -12.776  0.1843E+00  0.1921E+01
 -12.766  0.1584E+00  0.1923E+01
 -12.756  0.1377E+00  0.1925E+01
 -12.746  0.1221E+00  0.1926E+01
 -12.736  0.1116E+00  0.1927E+01
 -12.726  0.1063E+00  0.1928E+01
 -12.716  0.1056E+00  0.1929E+01
 -12.706  0.1055E+00  0.1930E+01
 -12.696  0.1050E+00  0.1931E+01
 -12.686  0.1045E+00  0.1932E+01
 -12.676  0.1039E+00  0.1933E+01
 -12.666  0.1034E+00  0.1934E+01
 -12.656  0.1028E+00  0.1936E+01
 -12.646  0.1023E+00  0.1937E+01
 -12.636  0.1017E+00  0.1938E+01
 -12.626  0.1012E+00  0.1939E+01
 -12.616  0.1006E+00  0.1940E+01
 -12.606  0.1001E+00  0.1941E+01
 -12.596  0.9951E-01  0.1942E+01
 -12.586  0.9897E-01  0.1943E+01
 -12.576  0.9844E-01  0.1944E+01
 -12.566  0.9793E-01  0.1945E+01
 -12.556  0.9742E-01  0.1946E+01
 -12.546  0.9694E-01  0.1946E+01
 -12.536  0.9646E-01  0.1947E+01
 -12.526  0.9599E-01  0.1948E+01
 -12.516  0.9554E-01  0.1949E+01
 -12.506  0.9570E-01  0.1950E+01
 -12.496  0.9681E-01  0.1951E+01
 -12.486  0.9793E-01  0.1952E+01
 -12.476  0.9903E-01  0.1953E+01
 -12.466  0.1002E+00  0.1954E+01
 -12.456  0.1014E+00  0.1955E+01
 -12.446  0.1027E+00  0.1956E+01
 -12.436  0.1040E+00  0.1957E+01
 -12.426  0.1069E+00  0.1958E+01
 -12.416  0.1113E+00  0.1959E+01
 -12.406  0.1157E+00  0.1961E+01
 -12.396  0.1200E+00  0.1962E+01
 -12.386  0.1243E+00  0.1963E+01
 -12.376  0.1284E+00  0.1964E+01
 -12.366  0.1325E+00  0.1966E+01
 -12.356  0.1366E+00  0.1967E+01
 -12.346  0.1405E+00  0.1968E+01
 -12.336  0.1444E+00  0.1970E+01
 -12.326  0.1482E+00  0.1971E+01
 -12.316  0.1520E+00  0.1973E+01
 -12.306  0.1557E+00  0.1974E+01
 -12.296  0.1593E+00  0.1976E+01
 -12.286  0.1628E+00  0.1977E+01
 -12.276  0.1663E+00  0.1979E+01
 -12.266  0.1697E+00  0.1981E+01
 -12.256  0.1730E+00  0.1982E+01
 -12.246  0.1763E+00  0.1984E+01
 -12.236  0.1795E+00  0.1986E+01
 -12.226  0.1826E+00  0.1988E+01
 -12.216  0.1857E+00  0.1990E+01
 -12.206  0.1887E+00  0.1991E+01
 -12.196  0.1917E+00  0.1993E+01
 -12.186  0.1946E+00  0.1995E+01
 -12.176  0.1976E+00  0.1997E+01
 -12.166  0.2005E+00  0.1999E+01
 -12.156  0.2034E+00  0.2001E+01
 -12.146  0.2063E+00  0.2003E+01
 -12.136  0.2092E+00  0.2005E+01
 -12.126  0.2121E+00  0.2008E+01
 -12.116  0.2150E+00  0.2010E+01
 -12.106  0.2179E+00  0.2012E+01
 -12.096  0.2233E+00  0.2014E+01
 -12.086  0.2295E+00  0.2016E+01
 -12.076  0.2357E+00  0.2019E+01
 -12.066  0.2428E+00  0.2021E+01
 -12.056  0.2518E+00  0.2023E+01
 -12.046  0.2632E+00  0.2026E+01
 -12.036  0.2771E+00  0.2029E+01
 -12.026  0.2935E+00  0.2032E+01
 -12.016  0.3494E+00  0.2035E+01
 -12.006  0.4270E+00  0.2039E+01
 -11.996  0.4942E+00  0.2043E+01
 -11.986  0.5512E+00  0.2048E+01
 -11.976  0.5979E+00  0.2054E+01
 -11.966  0.6336E+00  0.2060E+01
 -11.956  0.6517E+00  0.2067E+01
 -11.946  0.6514E+00  0.2073E+01
 -11.936  0.6329E+00  0.2080E+01
 -11.926  0.5962E+00  0.2086E+01
 -11.916  0.5413E+00  0.2092E+01
 -11.906  0.5181E+00  0.2097E+01
 -11.896  0.5143E+00  0.2102E+01
 -11.886  0.5050E+00  0.2107E+01
 -11.876  0.4904E+00  0.2112E+01
 -11.866  0.4705E+00  0.2117E+01
 -11.856  0.4452E+00  0.2122E+01
 -11.846  0.4146E+00  0.2126E+01
 -11.836  0.3786E+00  0.2130E+01
 -11.826  0.3374E+00  0.2133E+01
 -11.816  0.2979E+00  0.2137E+01
 -11.806  0.2781E+00  0.2139E+01
 -11.796  0.2778E+00  0.2142E+01
 -11.786  0.2834E+00  0.2145E+01
 -11.776  0.2892E+00  0.2148E+01
 -11.766  0.2956E+00  0.2151E+01
 -11.756  0.3025E+00  0.2154E+01
 -11.746  0.3112E+00  0.2157E+01
 -11.736  0.3213E+00  0.2160E+01
 -11.726  0.3314E+00  0.2163E+01
 -11.716  0.3397E+00  0.2167E+01
 -11.706  0.3456E+00  0.2170E+01
 -11.696  0.3502E+00  0.2174E+01
 -11.686  0.3547E+00  0.2177E+01
 -11.676  0.3592E+00  0.2181E+01
 -11.666  0.3636E+00  0.2184E+01
 -11.656  0.3680E+00  0.2188E+01
 -11.646  0.3724E+00  0.2192E+01
 -11.636  0.3768E+00  0.2195E+01
 -11.626  0.3811E+00  0.2199E+01
 -11.616  0.3854E+00  0.2203E+01
 -11.606  0.3896E+00  0.2207E+01
 -11.596  0.3938E+00  0.2211E+01
 -11.586  0.3980E+00  0.2215E+01
 -11.576  0.4022E+00  0.2219E+01
 -11.566  0.4064E+00  0.2223E+01
 -11.556  0.4111E+00  0.2227E+01
 -11.546  0.4158E+00  0.2231E+01
 -11.536  0.4208E+00  0.2235E+01
 -11.526  0.4260E+00  0.2239E+01
 -11.516  0.4312E+00  0.2244E+01
 -11.506  0.4363E+00  0.2248E+01
 -11.496  0.4415E+00  0.2252E+01
 -11.486  0.4466E+00  0.2257E+01
 -11.476  0.4518E+00  0.2261E+01
 -11.466  0.4569E+00  0.2266E+01
 -11.456  0.4620E+00  0.2270E+01
 -11.446  0.4670E+00  0.2275E+01
 -11.436  0.4721E+00  0.2280E+01
 -11.426  0.4771E+00  0.2285E+01
 -11.416  0.4821E+00  0.2289E+01
 -11.406  0.4871E+00  0.2294E+01
 -11.396  0.4920E+00  0.2299E+01
 -11.386  0.4969E+00  0.2304E+01
 -11.376  0.5018E+00  0.2309E+01
 -11.366  0.5067E+00  0.2314E+01
 -11.356  0.5115E+00  0.2319E+01
 -11.346  0.5163E+00  0.2324E+01
 -11.336  0.5211E+00  0.2329E+01
 -11.326  0.5258E+00  0.2335E+01
 -11.316  0.5306E+00  0.2340E+01
 -11.306  0.5353E+00  0.2345E+01
 -11.296  0.5399E+00  0.2351E+01
 -11.286  0.5446E+00  0.2356E+01
 -11.276  0.5492E+00  0.2362E+01
 -11.266  0.5538E+00  0.2367E+01
 -11.256  0.5584E+00  0.2373E+01
 -11.246  0.5624E+00  0.2378E+01
 -11.236  0.5630E+00  0.2384E+01
 -11.226  0.5593E+00  0.2390E+01
 -11.216  0.5514E+00  0.2395E+01
 -11.206  0.5393E+00  0.2401E+01
 -11.196  0.5233E+00  0.2406E+01
 -11.186  0.5056E+00  0.2411E+01
 -11.176  0.4838E+00  0.2416E+01
 -11.166  0.4578E+00  0.2421E+01
 -11.156  0.4291E+00  0.2425E+01
 -11.146  0.3967E+00  0.2429E+01
 -11.136  0.3725E+00  0.2433E+01
 -11.126  0.3599E+00  0.2437E+01
 -11.116  0.3569E+00  0.2440E+01
 -11.106  0.3593E+00  0.2444E+01
 -11.096  0.3619E+00  0.2447E+01
 -11.086  0.3645E+00  0.2451E+01
 -11.076  0.3671E+00  0.2455E+01
 -11.066  0.3712E+00  0.2458E+01
 -11.056  0.3756E+00  0.2462E+01
 -11.046  0.3813E+00  0.2466E+01
 -11.036  0.3936E+00  0.2470E+01
 -11.026  0.3953E+00  0.2474E+01
 -11.016  0.3782E+00  0.2478E+01
 -11.006  0.3636E+00  0.2481E+01
 -10.996  0.3532E+00  0.2485E+01
 -10.986  0.3471E+00  0.2488E+01
 -10.976  0.3454E+00  0.2492E+01
 -10.966  0.3462E+00  0.2495E+01
 -10.956  0.3456E+00  0.2499E+01
 -10.946  0.3436E+00  0.2502E+01
 -10.936  0.3413E+00  0.2506E+01
 -10.926  0.3390E+00  0.2509E+01
 -10.916  0.3378E+00  0.2513E+01
 -10.906  0.3368E+00  0.2516E+01
 -10.896  0.3357E+00  0.2519E+01
 -10.886  0.3347E+00  0.2523E+01
 -10.876  0.3338E+00  0.2526E+01
 -10.866  0.3334E+00  0.2529E+01
 -10.856  0.3332E+00  0.2533E+01
 -10.846  0.3314E+00  0.2536E+01
 -10.836  0.3297E+00  0.2539E+01
 -10.826  0.3280E+00  0.2543E+01
 -10.816  0.3263E+00  0.2546E+01
 -10.806  0.3246E+00  0.2549E+01
 -10.796  0.3230E+00  0.2552E+01
 -10.786  0.3215E+00  0.2556E+01
 -10.776  0.3199E+00  0.2559E+01
 -10.766  0.3184E+00  0.2562E+01
 -10.756  0.3169E+00  0.2565E+01
 -10.746  0.3155E+00  0.2568E+01
 -10.736  0.3141E+00  0.2571E+01
 -10.726  0.3127E+00  0.2575E+01
 -10.716  0.3113E+00  0.2578E+01
 -10.706  0.3100E+00  0.2581E+01
 -10.696  0.3086E+00  0.2584E+01
 -10.686  0.3072E+00  0.2587E+01
 -10.676  0.3058E+00  0.2590E+01
 -10.666  0.3044E+00  0.2593E+01
 -10.656  0.3030E+00  0.2596E+01
 -10.646  0.3016E+00  0.2599E+01
 -10.636  0.3002E+00  0.2602E+01
 -10.626  0.2988E+00  0.2605E+01
 -10.616  0.2973E+00  0.2608E+01
 -10.606  0.2957E+00  0.2611E+01
 -10.596  0.2940E+00  0.2614E+01
 -10.586  0.2932E+00  0.2617E+01
 -10.576  0.2939E+00  0.2620E+01
 -10.566  0.2951E+00  0.2623E+01
 -10.556  0.2966E+00  0.2626E+01
 -10.546  0.2986E+00  0.2629E+01
 -10.536  0.3012E+00  0.2632E+01
 -10.526  0.3037E+00  0.2635E+01
 -10.516  0.3063E+00  0.2638E+01
 -10.506  0.3078E+00  0.2641E+01
 -10.496  0.3084E+00  0.2644E+01
 -10.486  0.3095E+00  0.2647E+01
 -10.476  0.3109E+00  0.2650E+01
 -10.466  0.3107E+00  0.2653E+01
 -10.456  0.3095E+00  0.2656E+01
 -10.446  0.3083E+00  0.2659E+01
 -10.436  0.3070E+00  0.2663E+01
 -10.426  0.3059E+00  0.2666E+01
 -10.416  0.3047E+00  0.2669E+01
 -10.406  0.3036E+00  0.2672E+01
 -10.396  0.3025E+00  0.2675E+01
 -10.386  0.3014E+00  0.2678E+01
 -10.376  0.3004E+00  0.2681E+01
 -10.366  0.2994E+00  0.2684E+01
 -10.356  0.2984E+00  0.2687E+01
 -10.346  0.2974E+00  0.2690E+01
 -10.336  0.2964E+00  0.2693E+01
 -10.326  0.2954E+00  0.2696E+01
 -10.316  0.2944E+00  0.2699E+01
 -10.306  0.2934E+00  0.2702E+01
 -10.296  0.2924E+00  0.2704E+01
 -10.286  0.2914E+00  0.2707E+01
 -10.276  0.2905E+00  0.2710E+01
 -10.266  0.2895E+00  0.2713E+01
 -10.256  0.2886E+00  0.2716E+01
 -10.246  0.2876E+00  0.2719E+01
 -10.236  0.2867E+00  0.2722E+01
 -10.226  0.2858E+00  0.2725E+01
 -10.216  0.2848E+00  0.2728E+01
 -10.206  0.2839E+00  0.2730E+01
 -10.196  0.2830E+00  0.2733E+01
 -10.186  0.2821E+00  0.2736E+01
 -10.176  0.2812E+00  0.2739E+01
 -10.166  0.2803E+00  0.2742E+01
 -10.156  0.2794E+00  0.2744E+01
 -10.146  0.2785E+00  0.2747E+01
 -10.136  0.2776E+00  0.2750E+01
 -10.126  0.2768E+00  0.2753E+01
 -10.116  0.2759E+00  0.2756E+01
 -10.106  0.2750E+00  0.2758E+01
 -10.096  0.2742E+00  0.2761E+01
 -10.086  0.2733E+00  0.2764E+01
 -10.076  0.2725E+00  0.2767E+01
 -10.066  0.2716E+00  0.2769E+01
 -10.056  0.2708E+00  0.2772E+01
 -10.046  0.2700E+00  0.2775E+01
 -10.036  0.2692E+00  0.2777E+01
 -10.026  0.2684E+00  0.2780E+01
 -10.016  0.2676E+00  0.2783E+01
 -10.006  0.2668E+00  0.2785E+01
  -9.996  0.2660E+00  0.2788E+01
  -9.986  0.2652E+00  0.2791E+01
  -9.976  0.2644E+00  0.2793E+01
  -9.966  0.2636E+00  0.2796E+01
  -9.956  0.2628E+00  0.2799E+01
  -9.946  0.2621E+00  0.2801E+01
  -9.936  0.2613E+00  0.2804E+01
  -9.926  0.2606E+00  0.2807E+01
  -9.916  0.2599E+00  0.2809E+01
  -9.906  0.2592E+00  0.2812E+01
  -9.896  0.2585E+00  0.2814E+01
  -9.886  0.2579E+00  0.2817E+01
  -9.876  0.2573E+00  0.2819E+01
  -9.866  0.2567E+00  0.2822E+01
  -9.856  0.2562E+00  0.2825E+01
  -9.846  0.2557E+00  0.2827E+01
  -9.836  0.2552E+00  0.2830E+01
  -9.826  0.2549E+00  0.2832E+01
  -9.816  0.2555E+00  0.2835E+01
  -9.806  0.2571E+00  0.2837E+01
  -9.796  0.2594E+00  0.2840E+01
  -9.786  0.2626E+00  0.2843E+01
  -9.776  0.2662E+00  0.2845E+01
  -9.766  0.2699E+00  0.2848E+01
  -9.756  0.2740E+00  0.2851E+01
  -9.746  0.2769E+00  0.2853E+01
  -9.736  0.2797E+00  0.2856E+01
  -9.726  0.2813E+00  0.2859E+01
  -9.716  0.2831E+00  0.2862E+01
  -9.706  0.2849E+00  0.2865E+01
  -9.696  0.2867E+00  0.2867E+01
  -9.686  0.2884E+00  0.2870E+01
  -9.676  0.2904E+00  0.2873E+01
  -9.666  0.2925E+00  0.2876E+01
  -9.656  0.2946E+00  0.2879E+01
  -9.646  0.2967E+00  0.2882E+01
  -9.636  0.2987E+00  0.2885E+01
  -9.626  0.3010E+00  0.2888E+01
  -9.616  0.3037E+00  0.2891E+01
  -9.606  0.3063E+00  0.2894E+01
  -9.596  0.3089E+00  0.2897E+01
  -9.586  0.3122E+00  0.2900E+01
  -9.576  0.3161E+00  0.2903E+01
  -9.566  0.3199E+00  0.2907E+01
  -9.556  0.3225E+00  0.2910E+01
  -9.546  0.3242E+00  0.2913E+01
  -9.536  0.3259E+00  0.2916E+01
  -9.526  0.3276E+00  0.2920E+01
  -9.516  0.3293E+00  0.2923E+01
  -9.506  0.3310E+00  0.2926E+01
  -9.496  0.3326E+00  0.2929E+01
  -9.486  0.3342E+00  0.2933E+01
  -9.476  0.3357E+00  0.2936E+01
  -9.466  0.3372E+00  0.2940E+01
  -9.456  0.3386E+00  0.2943E+01
  -9.446  0.3401E+00  0.2946E+01
  -9.436  0.3415E+00  0.2950E+01
  -9.426  0.3429E+00  0.2953E+01
  -9.416  0.3442E+00  0.2957E+01
  -9.406  0.3456E+00  0.2960E+01
  -9.396  0.3469E+00  0.2963E+01
  -9.386  0.3481E+00  0.2967E+01
  -9.376  0.3494E+00  0.2970E+01
  -9.366  0.3506E+00  0.2974E+01
  -9.356  0.3519E+00  0.2977E+01
  -9.346  0.3530E+00  0.2981E+01
  -9.336  0.3542E+00  0.2984E+01
  -9.326  0.3554E+00  0.2988E+01
  -9.316  0.3565E+00  0.2992E+01
  -9.306  0.3576E+00  0.2995E+01
  -9.296  0.3586E+00  0.2999E+01
  -9.286  0.3597E+00  0.3002E+01
  -9.276  0.3607E+00  0.3006E+01
  -9.266  0.3617E+00  0.3010E+01
  -9.256  0.3626E+00  0.3013E+01
  -9.246  0.3636E+00  0.3017E+01
  -9.236  0.3645E+00  0.3020E+01
  -9.226  0.3654E+00  0.3024E+01
  -9.216  0.3663E+00  0.3028E+01
  -9.206  0.3671E+00  0.3031E+01
  -9.196  0.3679E+00  0.3035E+01
  -9.186  0.3687E+00  0.3039E+01
  -9.176  0.3695E+00  0.3042E+01
  -9.166  0.3702E+00  0.3046E+01
  -9.156  0.3709E+00  0.3050E+01
  -9.146  0.3716E+00  0.3054E+01
  -9.136  0.3723E+00  0.3057E+01
  -9.126  0.3730E+00  0.3061E+01
  -9.116  0.3736E+00  0.3065E+01
  -9.106  0.3742E+00  0.3069E+01
  -9.096  0.3747E+00  0.3072E+01
  -9.086  0.3753E+00  0.3076E+01
  -9.076  0.3758E+00  0.3080E+01
  -9.066  0.3763E+00  0.3084E+01
  -9.056  0.3768E+00  0.3087E+01
  -9.046  0.3772E+00  0.3091E+01
  -9.036  0.3777E+00  0.3095E+01
  -9.026  0.3781E+00  0.3099E+01
  -9.016  0.3783E+00  0.3102E+01
  -9.006  0.3780E+00  0.3106E+01
  -8.996  0.3784E+00  0.3110E+01
  -8.986  0.3790E+00  0.3114E+01
  -8.976  0.3797E+00  0.3118E+01
  -8.966  0.3817E+00  0.3121E+01
  -8.956  0.3849E+00  0.3125E+01
  -8.946  0.3883E+00  0.3129E+01
  -8.936  0.3917E+00  0.3133E+01
  -8.926  0.3939E+00  0.3137E+01
  -8.916  0.3928E+00  0.3141E+01
  -8.906  0.3894E+00  0.3145E+01
  -8.896  0.3954E+00  0.3149E+01
  -8.886  0.3969E+00  0.3153E+01
  -8.876  0.3915E+00  0.3157E+01
  -8.866  0.3915E+00  0.3160E+01
  -8.856  0.3948E+00  0.3164E+01
  -8.846  0.3927E+00  0.3168E+01
  -8.836  0.3910E+00  0.3172E+01
  -8.826  0.3910E+00  0.3176E+01
  -8.816  0.3910E+00  0.3180E+01
  -8.806  0.3911E+00  0.3184E+01
  -8.796  0.3912E+00  0.3188E+01
  -8.786  0.3912E+00  0.3192E+01
  -8.776  0.3913E+00  0.3196E+01
  -8.766  0.3915E+00  0.3200E+01
  -8.756  0.3924E+00  0.3204E+01
  -8.746  0.3924E+00  0.3207E+01
  -8.736  0.3918E+00  0.3211E+01
  -8.726  0.3913E+00  0.3215E+01
  -8.716  0.3909E+00  0.3219E+01
  -8.706  0.3909E+00  0.3223E+01
  -8.696  0.3911E+00  0.3227E+01
  -8.686  0.3912E+00  0.3231E+01
  -8.676  0.3913E+00  0.3235E+01
  -8.666  0.3914E+00  0.3239E+01
  -8.656  0.3915E+00  0.3243E+01
  -8.646  0.3916E+00  0.3247E+01
  -8.636  0.3917E+00  0.3251E+01
  -8.626  0.3918E+00  0.3254E+01
  -8.616  0.3922E+00  0.3258E+01
  -8.606  0.3937E+00  0.3262E+01
  -8.596  0.3957E+00  0.3266E+01
  -8.586  0.3977E+00  0.3270E+01
  -8.576  0.3996E+00  0.3274E+01
  -8.566  0.4011E+00  0.3278E+01
  -8.556  0.4022E+00  0.3282E+01
  -8.546  0.4015E+00  0.3286E+01
  -8.536  0.3967E+00  0.3290E+01
  -8.526  0.3932E+00  0.3294E+01
  -8.516  0.3901E+00  0.3298E+01
  -8.506  0.3872E+00  0.3302E+01
  -8.496  0.3854E+00  0.3306E+01
  -8.486  0.3842E+00  0.3310E+01
  -8.476  0.3832E+00  0.3314E+01
  -8.466  0.3826E+00  0.3317E+01
  -8.456  0.3823E+00  0.3321E+01
  -8.446  0.3823E+00  0.3325E+01
  -8.436  0.3824E+00  0.3329E+01
  -8.426  0.3825E+00  0.3333E+01
  -8.416  0.3826E+00  0.3336E+01
  -8.406  0.3827E+00  0.3340E+01
  -8.396  0.3829E+00  0.3344E+01
  -8.386  0.3830E+00  0.3348E+01
  -8.376  0.3831E+00  0.3352E+01
  -8.366  0.3832E+00  0.3356E+01
  -8.356  0.3834E+00  0.3359E+01
  -8.346  0.3835E+00  0.3363E+01
  -8.336  0.3837E+00  0.3367E+01
  -8.326  0.3838E+00  0.3371E+01
  -8.316  0.3839E+00  0.3375E+01
  -8.306  0.3841E+00  0.3379E+01
  -8.296  0.3842E+00  0.3382E+01
  -8.286  0.3844E+00  0.3386E+01
  -8.276  0.3845E+00  0.3390E+01
  -8.266  0.3847E+00  0.3394E+01
  -8.256  0.3848E+00  0.3398E+01
  -8.246  0.3849E+00  0.3402E+01
  -8.236  0.3851E+00  0.3406E+01
  -8.226  0.3853E+00  0.3409E+01
  -8.216  0.3855E+00  0.3413E+01
  -8.206  0.3858E+00  0.3417E+01
  -8.196  0.3861E+00  0.3421E+01
  -8.186  0.3864E+00  0.3425E+01
  -8.176  0.3844E+00  0.3429E+01
  -8.166  0.3825E+00  0.3433E+01
  -8.156  0.3814E+00  0.3436E+01
  -8.146  0.3803E+00  0.3440E+01
  -8.136  0.3799E+00  0.3444E+01
  -8.126  0.3801E+00  0.3448E+01
  -8.116  0.3806E+00  0.3452E+01
  -8.106  0.3811E+00  0.3455E+01
  -8.096  0.3816E+00  0.3459E+01
  -8.086  0.3821E+00  0.3463E+01
  -8.076  0.3826E+00  0.3467E+01
  -8.066  0.3831E+00  0.3471E+01
  -8.056  0.3836E+00  0.3474E+01
  -8.046  0.3841E+00  0.3478E+01
  -8.036  0.3846E+00  0.3482E+01
  -8.026  0.3851E+00  0.3486E+01
  -8.016  0.3856E+00  0.3490E+01
  -8.006  0.3861E+00  0.3494E+01
  -7.996  0.3866E+00  0.3498E+01
  -7.986  0.3871E+00  0.3501E+01
  -7.976  0.3876E+00  0.3505E+01
  -7.966  0.3881E+00  0.3509E+01
  -7.956  0.3886E+00  0.3513E+01
  -7.946  0.3891E+00  0.3517E+01
  -7.936  0.3896E+00  0.3521E+01
  -7.926  0.3901E+00  0.3525E+01
  -7.916  0.3906E+00  0.3529E+01
  -7.906  0.3911E+00  0.3533E+01
  -7.896  0.3916E+00  0.3536E+01
  -7.886  0.3921E+00  0.3540E+01
  -7.876  0.3926E+00  0.3544E+01
  -7.866  0.3931E+00  0.3548E+01
  -7.856  0.3936E+00  0.3552E+01
  -7.846  0.3941E+00  0.3556E+01
  -7.836  0.3946E+00  0.3560E+01
  -7.826  0.3950E+00  0.3564E+01
  -7.816  0.3955E+00  0.3568E+01
  -7.806  0.3960E+00  0.3572E+01
  -7.796  0.3965E+00  0.3576E+01
  -7.786  0.3970E+00  0.3580E+01
  -7.776  0.3975E+00  0.3584E+01
  -7.766  0.3980E+00  0.3588E+01
  -7.756  0.3985E+00  0.3592E+01
  -7.746  0.3990E+00  0.3596E+01
  -7.736  0.3995E+00  0.3600E+01
  -7.726  0.4000E+00  0.3604E+01
  -7.716  0.4005E+00  0.3608E+01
  -7.706  0.4010E+00  0.3612E+01
  -7.696  0.4015E+00  0.3616E+01
  -7.686  0.4020E+00  0.3620E+01
  -7.676  0.4025E+00  0.3624E+01
  -7.666  0.4029E+00  0.3628E+01
  -7.656  0.4034E+00  0.3632E+01
  -7.646  0.4039E+00  0.3636E+01
  -7.636  0.4047E+00  0.3640E+01
  -7.626  0.4051E+00  0.3644E+01
  -7.616  0.4050E+00  0.3648E+01
  -7.606  0.4056E+00  0.3652E+01
  -7.596  0.4062E+00  0.3656E+01
  -7.586  0.4054E+00  0.3660E+01
  -7.576  0.4046E+00  0.3664E+01
  -7.566  0.4040E+00  0.3668E+01
  -7.556  0.4035E+00  0.3672E+01
  -7.546  0.4037E+00  0.3676E+01
  -7.536  0.4041E+00  0.3680E+01
  -7.526  0.4045E+00  0.3684E+01
  -7.516  0.4048E+00  0.3689E+01
  -7.506  0.4052E+00  0.3693E+01
  -7.496  0.4055E+00  0.3697E+01
  -7.486  0.4058E+00  0.3701E+01
  -7.476  0.4061E+00  0.3705E+01
  -7.466  0.4064E+00  0.3709E+01
  -7.456  0.4066E+00  0.3713E+01
  -7.446  0.4069E+00  0.3717E+01
  -7.436  0.4071E+00  0.3721E+01
  -7.426  0.4072E+00  0.3725E+01
  -7.416  0.4072E+00  0.3729E+01
  -7.406  0.4069E+00  0.3733E+01
  -7.396  0.4028E+00  0.3737E+01
  -7.386  0.3969E+00  0.3741E+01
  -7.376  0.3915E+00  0.3745E+01
  -7.366  0.3911E+00  0.3749E+01
  -7.356  0.3944E+00  0.3753E+01
  -7.346  0.3974E+00  0.3757E+01
  -7.336  0.4003E+00  0.3761E+01
  -7.326  0.4031E+00  0.3765E+01
  -7.316  0.4061E+00  0.3769E+01
  -7.306  0.4090E+00  0.3773E+01
  -7.296  0.4118E+00  0.3777E+01
  -7.286  0.4144E+00  0.3781E+01
  -7.276  0.4168E+00  0.3786E+01
  -7.266  0.4190E+00  0.3790E+01
  -7.256  0.4211E+00  0.3794E+01
  -7.246  0.4230E+00  0.3798E+01
  -7.236  0.4247E+00  0.3802E+01
  -7.226  0.4237E+00  0.3807E+01
  -7.216  0.4231E+00  0.3811E+01
  -7.206  0.4235E+00  0.3815E+01
  -7.196  0.4205E+00  0.3819E+01
  -7.186  0.4182E+00  0.3824E+01
  -7.176  0.4174E+00  0.3828E+01
  -7.166  0.4174E+00  0.3832E+01
  -7.156  0.4173E+00  0.3836E+01
  -7.146  0.4180E+00  0.3840E+01
  -7.136  0.4190E+00  0.3844E+01
  -7.126  0.4199E+00  0.3849E+01
  -7.116  0.4208E+00  0.3853E+01
  -7.106  0.4218E+00  0.3857E+01
  -7.096  0.4227E+00  0.3861E+01
  -7.086  0.4236E+00  0.3865E+01
  -7.076  0.4245E+00  0.3870E+01
  -7.066  0.4255E+00  0.3874E+01
  -7.056  0.4264E+00  0.3878E+01
  -7.046  0.4273E+00  0.3882E+01
  -7.036  0.4283E+00  0.3887E+01
  -7.026  0.4292E+00  0.3891E+01
  -7.016  0.4302E+00  0.3895E+01
  -7.006  0.4311E+00  0.3900E+01
  -6.996  0.4320E+00  0.3904E+01
  -6.986  0.4330E+00  0.3908E+01
  -6.976  0.4339E+00  0.3913E+01
  -6.966  0.4349E+00  0.3917E+01
  -6.956  0.4358E+00  0.3921E+01
  -6.946  0.4368E+00  0.3926E+01
  -6.936  0.4377E+00  0.3930E+01
  -6.926  0.4387E+00  0.3934E+01
  -6.916  0.4397E+00  0.3939E+01
  -6.906  0.4406E+00  0.3943E+01
  -6.896  0.4416E+00  0.3948E+01
  -6.886  0.4426E+00  0.3952E+01
  -6.876  0.4435E+00  0.3956E+01
  -6.866  0.4446E+00  0.3961E+01
  -6.856  0.4459E+00  0.3965E+01
  -6.846  0.4472E+00  0.3970E+01
  -6.836  0.4485E+00  0.3974E+01
  -6.826  0.4498E+00  0.3979E+01
  -6.816  0.4511E+00  0.3983E+01
  -6.806  0.4528E+00  0.3988E+01
  -6.796  0.4546E+00  0.3992E+01
  -6.786  0.4580E+00  0.3997E+01
  -6.776  0.4630E+00  0.4002E+01
  -6.766  0.4855E+00  0.4006E+01
  -6.756  0.5209E+00  0.4011E+01
  -6.746  0.5541E+00  0.4017E+01
  -6.736  0.5850E+00  0.4022E+01
  -6.726  0.6122E+00  0.4028E+01
  -6.716  0.6359E+00  0.4035E+01
  -6.706  0.6584E+00  0.4041E+01
  -6.696  0.6799E+00  0.4048E+01
  -6.686  0.7001E+00  0.4055E+01
  -6.676  0.7191E+00  0.4062E+01
  -6.666  0.7370E+00  0.4069E+01
  -6.656  0.7604E+00  0.4077E+01
  -6.646  0.7751E+00  0.4084E+01
  -6.636  0.7807E+00  0.4092E+01
  -6.626  0.7843E+00  0.4100E+01
  -6.616  0.7872E+00  0.4108E+01
  -6.606  0.7913E+00  0.4116E+01
  -6.596  0.7926E+00  0.4123E+01
  -6.586  0.7567E+00  0.4131E+01
  -6.576  0.6809E+00  0.4138E+01
  -6.566  0.6879E+00  0.4145E+01
  -6.556  0.6824E+00  0.4152E+01
  -6.546  0.6767E+00  0.4159E+01
  -6.536  0.6760E+00  0.4166E+01
  -6.526  0.6775E+00  0.4173E+01
  -6.516  0.6788E+00  0.4179E+01
  -6.506  0.6802E+00  0.4186E+01
  -6.496  0.6820E+00  0.4193E+01
  -6.486  0.6841E+00  0.4200E+01
  -6.476  0.6865E+00  0.4207E+01
  -6.466  0.6898E+00  0.4213E+01
  -6.456  0.6941E+00  0.4220E+01
  -6.446  0.6988E+00  0.4227E+01
  -6.436  0.7036E+00  0.4234E+01
  -6.426  0.7084E+00  0.4241E+01
  -6.416  0.7133E+00  0.4249E+01
  -6.406  0.7181E+00  0.4256E+01
  -6.396  0.7231E+00  0.4263E+01
  -6.386  0.7280E+00  0.4270E+01
  -6.376  0.7331E+00  0.4277E+01
  -6.366  0.7382E+00  0.4285E+01
  -6.356  0.7434E+00  0.4292E+01
  -6.346  0.7487E+00  0.4300E+01
  -6.336  0.7541E+00  0.4307E+01
  -6.326  0.7596E+00  0.4315E+01
  -6.316  0.7653E+00  0.4322E+01
  -6.306  0.7712E+00  0.4330E+01
  -6.296  0.7772E+00  0.4338E+01
  -6.286  0.7833E+00  0.4346E+01
  -6.276  0.7896E+00  0.4353E+01
  -6.266  0.7960E+00  0.4361E+01
  -6.256  0.8026E+00  0.4369E+01
  -6.246  0.8093E+00  0.4377E+01
  -6.236  0.8162E+00  0.4386E+01
  -6.226  0.8231E+00  0.4394E+01
  -6.216  0.8296E+00  0.4402E+01
  -6.206  0.8360E+00  0.4410E+01
  -6.196  0.8423E+00  0.4419E+01
  -6.186  0.8406E+00  0.4427E+01
  -6.176  0.8268E+00  0.4436E+01
  -6.166  0.8164E+00  0.4444E+01
  -6.156  0.8074E+00  0.4452E+01
  -6.146  0.7986E+00  0.4460E+01
  -6.136  0.7940E+00  0.4468E+01
  -6.126  0.7998E+00  0.4476E+01
  -6.116  0.8053E+00  0.4484E+01
  -6.106  0.8106E+00  0.4492E+01
  -6.096  0.8155E+00  0.4500E+01
  -6.086  0.8202E+00  0.4508E+01
  -6.076  0.8257E+00  0.4516E+01
  -6.066  0.8313E+00  0.4525E+01
  -6.056  0.8277E+00  0.4533E+01
  -6.046  0.8283E+00  0.4541E+01
  -6.036  0.8531E+00  0.4550E+01
  -6.026  0.8948E+00  0.4559E+01
  -6.016  0.8968E+00  0.4567E+01
  -6.006  0.8993E+00  0.4576E+01
  -5.996  0.9017E+00  0.4585E+01
  -5.986  0.9057E+00  0.4594E+01
  -5.976  0.9133E+00  0.4604E+01
  -5.966  0.9181E+00  0.4613E+01
  -5.956  0.9167E+00  0.4622E+01
  -5.946  0.9177E+00  0.4631E+01
  -5.936  0.9224E+00  0.4640E+01
  -5.926  0.9322E+00  0.4650E+01
  -5.916  0.9434E+00  0.4659E+01
  -5.906  0.9544E+00  0.4668E+01
  -5.896  0.9653E+00  0.4678E+01
  -5.886  0.9753E+00  0.4688E+01
  -5.876  0.9827E+00  0.4698E+01
  -5.866  0.9874E+00  0.4707E+01
  -5.856  0.9898E+00  0.4717E+01
  -5.846  0.9920E+00  0.4727E+01
  -5.836  0.9946E+00  0.4737E+01
  -5.826  0.9975E+00  0.4747E+01
  -5.816  0.1001E+01  0.4757E+01
  -5.806  0.1004E+01  0.4767E+01
  -5.796  0.1008E+01  0.4777E+01
  -5.786  0.1013E+01  0.4787E+01
  -5.776  0.1017E+01  0.4797E+01
  -5.766  0.1022E+01  0.4808E+01
  -5.756  0.1026E+01  0.4818E+01
  -5.746  0.1031E+01  0.4828E+01
  -5.736  0.1036E+01  0.4838E+01
  -5.726  0.1041E+01  0.4849E+01
  -5.716  0.1046E+01  0.4859E+01
  -5.706  0.1050E+01  0.4870E+01
  -5.696  0.1048E+01  0.4880E+01
  -5.686  0.1045E+01  0.4891E+01
  -5.676  0.1044E+01  0.4901E+01
  -5.666  0.1045E+01  0.4912E+01
  -5.656  0.1048E+01  0.4922E+01
  -5.646  0.1050E+01  0.4933E+01
  -5.636  0.1054E+01  0.4943E+01
  -5.626  0.1062E+01  0.4954E+01
  -5.616  0.1070E+01  0.4964E+01
  -5.606  0.1078E+01  0.4975E+01
  -5.596  0.1086E+01  0.4986E+01
  -5.586  0.1093E+01  0.4997E+01
  -5.576  0.1099E+01  0.5008E+01
  -5.566  0.1105E+01  0.5019E+01
  -5.556  0.1106E+01  0.5030E+01
  -5.546  0.1121E+01  0.5041E+01
  -5.536  0.1111E+01  0.5052E+01
  -5.526  0.1101E+01  0.5063E+01
  -5.516  0.1157E+01  0.5074E+01
  -5.506  0.1261E+01  0.5086E+01
  -5.496  0.1362E+01  0.5100E+01
  -5.486  0.1465E+01  0.5114E+01
  -5.476  0.1565E+01  0.5129E+01
  -5.466  0.1663E+01  0.5145E+01
  -5.456  0.1750E+01  0.5162E+01
  -5.446  0.1752E+01  0.5180E+01
  -5.436  0.1627E+01  0.5197E+01
  -5.426  0.1400E+01  0.5212E+01
  -5.416  0.1137E+01  0.5224E+01
  -5.406  0.1033E+01  0.5235E+01
  -5.396  0.9961E+00  0.5245E+01
  -5.386  0.9674E+00  0.5255E+01
  -5.376  0.9579E+00  0.5265E+01
  -5.366  0.9577E+00  0.5274E+01
  -5.356  0.9445E+00  0.5284E+01
  -5.346  0.9320E+00  0.5293E+01
  -5.336  0.9197E+00  0.5302E+01
  -5.326  0.9074E+00  0.5312E+01
  -5.316  0.8948E+00  0.5321E+01
  -5.306  0.8825E+00  0.5329E+01
  -5.296  0.8770E+00  0.5338E+01
  -5.286  0.8719E+00  0.5347E+01
  -5.276  0.8670E+00  0.5356E+01
  -5.266  0.8624E+00  0.5364E+01
  -5.256  0.8582E+00  0.5373E+01
  -5.246  0.8543E+00  0.5382E+01
  -5.236  0.8507E+00  0.5390E+01
  -5.226  0.8474E+00  0.5399E+01
  -5.216  0.8444E+00  0.5407E+01
  -5.206  0.8416E+00  0.5415E+01
  -5.196  0.8389E+00  0.5424E+01
  -5.186  0.8364E+00  0.5432E+01
  -5.176  0.8341E+00  0.5441E+01
  -5.166  0.8320E+00  0.5449E+01
  -5.156  0.8301E+00  0.5457E+01
  -5.146  0.8283E+00  0.5465E+01
  -5.136  0.8268E+00  0.5474E+01
  -5.126  0.8254E+00  0.5482E+01
  -5.116  0.8239E+00  0.5490E+01
  -5.106  0.8219E+00  0.5498E+01
  -5.096  0.8193E+00  0.5507E+01
  -5.086  0.8191E+00  0.5515E+01
  -5.076  0.8244E+00  0.5523E+01
  -5.066  0.8301E+00  0.5531E+01
  -5.056  0.8362E+00  0.5540E+01
  -5.046  0.8429E+00  0.5548E+01
  -5.036  0.8468E+00  0.5557E+01
  -5.026  0.8296E+00  0.5565E+01
  -5.016  0.8008E+00  0.5573E+01
  -5.006  0.7702E+00  0.5581E+01
  -4.996  0.7500E+00  0.5589E+01
  -4.986  0.8475E+00  0.5596E+01
  -4.976  0.1059E+01  0.5606E+01
  -4.966  0.1332E+01  0.5618E+01
  -4.956  0.1480E+01  0.5632E+01
  -4.946  0.1624E+01  0.5647E+01
  -4.936  0.1782E+01  0.5665E+01
  -4.926  0.1830E+01  0.5683E+01
  -4.916  0.1579E+01  0.5700E+01
  -4.906  0.1022E+01  0.5713E+01
  -4.896  0.5425E+00  0.5721E+01
  -4.886  0.3938E+00  0.5725E+01
  -4.876  0.3199E+00  0.5729E+01
  -4.866  0.2666E+00  0.5732E+01
  -4.856  0.2310E+00  0.5734E+01
  -4.846  0.2142E+00  0.5736E+01
  -4.836  0.2081E+00  0.5739E+01
  -4.826  0.2026E+00  0.5741E+01
  -4.816  0.1975E+00  0.5743E+01
  -4.806  0.1928E+00  0.5745E+01
  -4.796  0.1886E+00  0.5746E+01
  -4.786  0.1848E+00  0.5748E+01
  -4.776  0.1814E+00  0.5750E+01
  -4.766  0.1781E+00  0.5752E+01
  -4.756  0.1749E+00  0.5754E+01
  -4.746  0.1717E+00  0.5755E+01
  -4.736  0.1686E+00  0.5757E+01
  -4.726  0.1655E+00  0.5759E+01
  -4.716  0.1625E+00  0.5760E+01
  -4.706  0.1596E+00  0.5762E+01
  -4.696  0.1567E+00  0.5764E+01
  -4.686  0.1538E+00  0.5765E+01
  -4.676  0.1511E+00  0.5767E+01
  -4.666  0.1484E+00  0.5768E+01
  -4.656  0.1458E+00  0.5770E+01
  -4.646  0.1435E+00  0.5771E+01
  -4.636  0.1415E+00  0.5773E+01
  -4.626  0.1397E+00  0.5774E+01
  -4.616  0.1381E+00  0.5775E+01
  -4.606  0.1368E+00  0.5777E+01
  -4.596  0.1358E+00  0.5778E+01
  -4.586  0.1350E+00  0.5779E+01
  -4.576  0.1344E+00  0.5781E+01
  -4.566  0.1347E+00  0.5782E+01
  -4.556  0.1447E+00  0.5784E+01
  -4.546  0.1582E+00  0.5785E+01
  -4.536  0.1725E+00  0.5787E+01
  -4.526  0.1877E+00  0.5788E+01
  -4.516  0.2060E+00  0.5790E+01
  -4.506  0.2294E+00  0.5793E+01
  -4.496  0.3350E+00  0.5795E+01
  -4.486  0.4662E+00  0.5799E+01
  -4.476  0.5830E+00  0.5805E+01
  -4.466  0.6857E+00  0.5811E+01
  -4.456  0.7751E+00  0.5818E+01
  -4.446  0.8517E+00  0.5826E+01
  -4.436  0.9157E+00  0.5835E+01
  -4.426  0.9666E+00  0.5845E+01
  -4.416  0.1005E+01  0.5855E+01
  -4.406  0.1027E+01  0.5865E+01
  -4.396  0.1025E+01  0.5875E+01
  -4.386  0.1004E+01  0.5885E+01
  -4.376  0.9804E+00  0.5895E+01
  -4.366  0.9587E+00  0.5905E+01
  -4.356  0.1136E+01  0.5915E+01
  -4.346  0.1240E+01  0.5927E+01
  -4.336  0.1232E+01  0.5940E+01
  -4.326  0.1149E+01  0.5951E+01
  -4.316  0.1111E+01  0.5963E+01
  -4.306  0.1144E+01  0.5974E+01
  -4.296  0.1198E+01  0.5986E+01
  -4.286  0.1193E+01  0.5998E+01
  -4.276  0.1241E+01  0.6010E+01
  -4.266  0.1309E+01  0.6023E+01
  -4.256  0.1353E+01  0.6036E+01
  -4.246  0.1372E+01  0.6050E+01
  -4.236  0.1362E+01  0.6063E+01
  -4.226  0.1258E+01  0.6076E+01
  -4.216  0.9909E+00  0.6087E+01
  -4.206  0.1001E+01  0.6097E+01
  -4.196  0.9246E+00  0.6107E+01
  -4.186  0.8550E+00  0.6116E+01
  -4.176  0.8522E+00  0.6124E+01
  -4.166  0.8458E+00  0.6133E+01
  -4.156  0.8355E+00  0.6141E+01
  -4.146  0.8247E+00  0.6149E+01
  -4.136  0.8143E+00  0.6158E+01
  -4.126  0.8040E+00  0.6166E+01
  -4.116  0.7940E+00  0.6174E+01
  -4.106  0.7841E+00  0.6182E+01
  -4.096  0.7746E+00  0.6189E+01
  -4.086  0.7652E+00  0.6197E+01
  -4.076  0.7561E+00  0.6205E+01
  -4.066  0.7471E+00  0.6212E+01
  -4.056  0.7385E+00  0.6220E+01
  -4.046  0.7300E+00  0.6227E+01
  -4.036  0.7218E+00  0.6234E+01
  -4.026  0.7138E+00  0.6241E+01
  -4.016  0.7060E+00  0.6248E+01
  -4.006  0.6984E+00  0.6255E+01
  -3.996  0.6911E+00  0.6262E+01
  -3.986  0.6840E+00  0.6269E+01
  -3.976  0.6771E+00  0.6276E+01
  -3.966  0.6704E+00  0.6283E+01
  -3.956  0.6640E+00  0.6289E+01
  -3.946  0.6578E+00  0.6296E+01
  -3.936  0.6518E+00  0.6303E+01
  -3.926  0.6461E+00  0.6309E+01
  -3.916  0.6405E+00  0.6316E+01
  -3.906  0.6352E+00  0.6322E+01
  -3.896  0.6301E+00  0.6328E+01
  -3.886  0.6252E+00  0.6335E+01
  -3.876  0.6205E+00  0.6341E+01
  -3.866  0.6158E+00  0.6347E+01
  -3.856  0.6110E+00  0.6353E+01
  -3.846  0.6062E+00  0.6359E+01
  -3.836  0.6013E+00  0.6365E+01
  -3.826  0.5962E+00  0.6371E+01
  -3.816  0.5925E+00  0.6377E+01
  -3.806  0.5889E+00  0.6383E+01
  -3.796  0.5880E+00  0.6389E+01
  -3.786  0.5906E+00  0.6395E+01
  -3.776  0.5933E+00  0.6401E+01
  -3.766  0.5944E+00  0.6407E+01
  -3.756  0.5949E+00  0.6413E+01
  -3.746  0.5930E+00  0.6419E+01
  -3.736  0.5910E+00  0.6424E+01
  -3.726  0.5891E+00  0.6430E+01
  -3.716  0.5871E+00  0.6436E+01
  -3.706  0.5852E+00  0.6442E+01
  -3.696  0.5833E+00  0.6448E+01
  -3.686  0.5813E+00  0.6454E+01
  -3.676  0.5794E+00  0.6460E+01
  -3.666  0.5775E+00  0.6465E+01
  -3.656  0.5756E+00  0.6471E+01
  -3.646  0.5738E+00  0.6477E+01
  -3.636  0.5719E+00  0.6483E+01
  -3.626  0.5701E+00  0.6488E+01
  -3.616  0.5682E+00  0.6494E+01
  -3.606  0.5664E+00  0.6500E+01
  -3.596  0.5647E+00  0.6505E+01
  -3.586  0.5629E+00  0.6511E+01
  -3.576  0.5611E+00  0.6517E+01
  -3.566  0.5594E+00  0.6522E+01
  -3.556  0.5577E+00  0.6528E+01
  -3.546  0.5560E+00  0.6533E+01
  -3.536  0.5543E+00  0.6539E+01
  -3.526  0.5526E+00  0.6544E+01
  -3.516  0.5510E+00  0.6550E+01
  -3.506  0.5493E+00  0.6555E+01
  -3.496  0.5477E+00  0.6561E+01
  -3.486  0.5461E+00  0.6566E+01
  -3.476  0.5445E+00  0.6572E+01
  -3.466  0.5430E+00  0.6577E+01
  -3.456  0.5414E+00  0.6583E+01
  -3.446  0.5399E+00  0.6588E+01
  -3.436  0.5384E+00  0.6594E+01
  -3.426  0.5369E+00  0.6599E+01
  -3.416  0.5354E+00  0.6604E+01
  -3.406  0.5339E+00  0.6610E+01
  -3.396  0.5324E+00  0.6615E+01
  -3.386  0.5310E+00  0.6620E+01
  -3.376  0.5296E+00  0.6626E+01
  -3.366  0.5282E+00  0.6631E+01
  -3.356  0.5268E+00  0.6636E+01
  -3.346  0.5253E+00  0.6641E+01
  -3.336  0.5239E+00  0.6647E+01
  -3.326  0.5224E+00  0.6652E+01
  -3.316  0.5216E+00  0.6657E+01
  -3.306  0.5221E+00  0.6662E+01
  -3.296  0.5226E+00  0.6668E+01
  -3.286  0.5230E+00  0.6673E+01
  -3.276  0.5254E+00  0.6678E+01
  -3.266  0.5376E+00  0.6683E+01
  -3.256  0.5381E+00  0.6689E+01
  -3.246  0.5327E+00  0.6694E+01
  -3.236  0.5129E+00  0.6699E+01
  -3.226  0.4913E+00  0.6704E+01
  -3.216  0.5219E+00  0.6709E+01
  -3.206  0.5301E+00  0.6715E+01
  -3.196  0.5190E+00  0.6720E+01
  -3.186  0.5057E+00  0.6725E+01
  -3.176  0.5045E+00  0.6730E+01
  -3.166  0.5274E+00  0.6735E+01
  -3.156  0.5545E+00  0.6741E+01
  -3.146  0.5629E+00  0.6746E+01
  -3.136  0.5648E+00  0.6752E+01
  -3.126  0.5662E+00  0.6758E+01
  -3.116  0.5669E+00  0.6763E+01
  -3.106  0.5670E+00  0.6769E+01
  -3.096  0.5667E+00  0.6775E+01
  -3.086  0.5663E+00  0.6780E+01
  -3.076  0.5659E+00  0.6786E+01
  -3.066  0.5656E+00  0.6792E+01
  -3.056  0.5652E+00  0.6797E+01
  -3.046  0.5648E+00  0.6803E+01
  -3.036  0.5645E+00  0.6808E+01
  -3.026  0.5641E+00  0.6814E+01
  -3.016  0.5637E+00  0.6820E+01
  -3.006  0.5633E+00  0.6825E+01
  -2.996  0.5630E+00  0.6831E+01
  -2.986  0.5626E+00  0.6837E+01
  -2.976  0.5622E+00  0.6842E+01
  -2.966  0.5618E+00  0.6848E+01
  -2.956  0.5614E+00  0.6854E+01
  -2.946  0.5610E+00  0.6859E+01
  -2.936  0.5605E+00  0.6865E+01
  -2.926  0.5601E+00  0.6870E+01
  -2.916  0.5601E+00  0.6876E+01
  -2.906  0.5581E+00  0.6882E+01
  -2.896  0.5540E+00  0.6887E+01
  -2.886  0.5499E+00  0.6893E+01
  -2.876  0.5458E+00  0.6898E+01
  -2.866  0.5430E+00  0.6904E+01
  -2.856  0.5424E+00  0.6909E+01
  -2.846  0.5418E+00  0.6914E+01
  -2.836  0.5411E+00  0.6920E+01
  -2.826  0.5405E+00  0.6925E+01
  -2.816  0.5397E+00  0.6931E+01
  -2.806  0.5390E+00  0.6936E+01
  -2.796  0.5383E+00  0.6941E+01
  -2.786  0.5377E+00  0.6947E+01
  -2.776  0.5380E+00  0.6952E+01
  -2.766  0.5383E+00  0.6958E+01
  -2.756  0.5387E+00  0.6963E+01
  -2.746  0.5387E+00  0.6968E+01
  -2.736  0.5284E+00  0.6974E+01
  -2.726  0.5353E+00  0.6979E+01
  -2.716  0.5410E+00  0.6984E+01
  -2.706  0.5456E+00  0.6990E+01
  -2.696  0.5489E+00  0.6995E+01
  -2.686  0.5511E+00  0.7001E+01
  -2.676  0.5521E+00  0.7006E+01
  -2.666  0.5522E+00  0.7012E+01
  -2.656  0.5514E+00  0.7017E+01
  -2.646  0.5482E+00  0.7023E+01
  -2.636  0.5466E+00  0.7028E+01
  -2.626  0.5457E+00  0.7034E+01
  -2.616  0.5448E+00  0.7039E+01
  -2.606  0.5439E+00  0.7045E+01
  -2.596  0.5429E+00  0.7050E+01
  -2.586  0.5418E+00  0.7055E+01
  -2.576  0.5407E+00  0.7061E+01
  -2.566  0.5396E+00  0.7066E+01
  -2.556  0.5384E+00  0.7072E+01
  -2.546  0.5372E+00  0.7077E+01
  -2.536  0.5359E+00  0.7082E+01
  -2.526  0.5346E+00  0.7088E+01
  -2.516  0.5333E+00  0.7093E+01
  -2.506  0.5318E+00  0.7098E+01
  -2.496  0.5304E+00  0.7104E+01
  -2.486  0.5289E+00  0.7109E+01
  -2.476  0.5294E+00  0.7114E+01
  -2.466  0.5333E+00  0.7120E+01
  -2.456  0.5587E+00  0.7125E+01
  -2.446  0.5778E+00  0.7131E+01
  -2.436  0.5904E+00  0.7137E+01
  -2.426  0.5967E+00  0.7143E+01
  -2.416  0.5996E+00  0.7149E+01
  -2.406  0.6033E+00  0.7155E+01
  -2.396  0.6006E+00  0.7161E+01
  -2.386  0.5975E+00  0.7167E+01
  -2.376  0.5940E+00  0.7173E+01
  -2.366  0.5902E+00  0.7178E+01
  -2.356  0.5860E+00  0.7184E+01
  -2.346  0.5814E+00  0.7190E+01
  -2.336  0.5748E+00  0.7196E+01
  -2.326  0.5657E+00  0.7202E+01
  -2.316  0.5567E+00  0.7207E+01
  -2.306  0.5485E+00  0.7213E+01
  -2.296  0.5400E+00  0.7218E+01
  -2.286  0.5310E+00  0.7224E+01
  -2.276  0.5216E+00  0.7229E+01
  -2.266  0.5133E+00  0.7234E+01
  -2.256  0.5057E+00  0.7239E+01
  -2.246  0.4976E+00  0.7244E+01
  -2.236  0.4891E+00  0.7249E+01
  -2.226  0.4802E+00  0.7254E+01
  -2.216  0.4709E+00  0.7259E+01
  -2.206  0.4611E+00  0.7263E+01
  -2.196  0.4509E+00  0.7268E+01
  -2.186  0.4403E+00  0.7272E+01
  -2.176  0.4293E+00  0.7277E+01
  -2.166  0.4179E+00  0.7281E+01
  -2.156  0.4062E+00  0.7285E+01
  -2.146  0.3940E+00  0.7289E+01
  -2.136  0.3815E+00  0.7293E+01
  -2.126  0.3733E+00  0.7297E+01
  -2.116  0.3708E+00  0.7300E+01
  -2.106  0.3686E+00  0.7304E+01
  -2.096  0.3668E+00  0.7308E+01
  -2.086  0.3652E+00  0.7311E+01
  -2.076  0.3643E+00  0.7315E+01
  -2.066  0.3657E+00  0.7319E+01
  -2.056  0.3671E+00  0.7322E+01
  -2.046  0.3686E+00  0.7326E+01
  -2.036  0.3701E+00  0.7330E+01
  -2.026  0.3718E+00  0.7334E+01
  -2.016  0.3734E+00  0.7337E+01
  -2.006  0.3752E+00  0.7341E+01
  -1.996  0.3770E+00  0.7345E+01
  -1.986  0.3789E+00  0.7349E+01
  -1.976  0.3808E+00  0.7352E+01
  -1.966  0.3828E+00  0.7356E+01
  -1.956  0.3848E+00  0.7360E+01
  -1.946  0.3868E+00  0.7364E+01
  -1.936  0.3888E+00  0.7368E+01
  -1.926  0.3909E+00  0.7372E+01
  -1.916  0.3930E+00  0.7376E+01
  -1.906  0.3951E+00  0.7379E+01
  -1.896  0.3972E+00  0.7383E+01
  -1.886  0.3993E+00  0.7387E+01
  -1.876  0.4012E+00  0.7391E+01
  -1.866  0.4024E+00  0.7395E+01
  -1.856  0.3928E+00  0.7399E+01
  -1.846  0.3822E+00  0.7403E+01
  -1.836  0.3721E+00  0.7407E+01
  -1.826  0.3706E+00  0.7411E+01
  -1.816  0.3984E+00  0.7415E+01
  -1.806  0.4157E+00  0.7419E+01
  -1.796  0.4283E+00  0.7423E+01
  -1.786  0.4431E+00  0.7427E+01
  -1.776  0.4294E+00  0.7432E+01
  -1.766  0.4163E+00  0.7436E+01
  -1.756  0.4034E+00  0.7440E+01
  -1.746  0.3980E+00  0.7444E+01
  -1.736  0.3946E+00  0.7448E+01
  -1.726  0.3912E+00  0.7452E+01
  -1.716  0.3918E+00  0.7456E+01
  -1.706  0.4031E+00  0.7460E+01
  -1.696  0.4129E+00  0.7464E+01
  -1.686  0.4222E+00  0.7468E+01
  -1.676  0.4315E+00  0.7472E+01
  -1.666  0.4409E+00  0.7477E+01
  -1.656  0.4505E+00  0.7481E+01
  -1.646  0.4601E+00  0.7486E+01
  -1.636  0.4698E+00  0.7490E+01
  -1.626  0.4796E+00  0.7495E+01
  -1.616  0.4898E+00  0.7500E+01
  -1.606  0.5008E+00  0.7505E+01
  -1.596  0.5134E+00  0.7510E+01
  -1.586  0.5218E+00  0.7515E+01
  -1.576  0.5069E+00  0.7520E+01
  -1.566  0.4916E+00  0.7525E+01
  -1.556  0.4760E+00  0.7530E+01
  -1.546  0.4602E+00  0.7535E+01
  -1.536  0.4441E+00  0.7539E+01
  -1.526  0.4298E+00  0.7544E+01
  -1.516  0.4196E+00  0.7548E+01
  -1.506  0.4768E+00  0.7552E+01
  -1.496  0.8956E+00  0.7559E+01
  -1.486  0.1063E+01  0.7569E+01
  -1.476  0.9502E+00  0.7579E+01
  -1.466  0.8327E+00  0.7602E+01
  -1.456  0.7309E+00  0.7610E+01
  -1.446  0.6426E+00  0.7617E+01
  -1.436  0.5680E+00  0.7623E+01
  -1.426  0.5071E+00  0.7628E+01
  -1.416  0.4598E+00  0.7633E+01
  -1.406  0.4260E+00  0.7637E+01
  -1.396  0.4064E+00  0.7641E+01
  -1.386  0.4005E+00  0.7645E+01
  -1.376  0.3962E+00  0.7649E+01
  -1.366  0.3924E+00  0.7653E+01
  -1.356  0.3888E+00  0.7657E+01
  -1.346  0.3853E+00  0.7661E+01
  -1.336  0.3819E+00  0.7665E+01
  -1.326  0.3785E+00  0.7669E+01
  -1.316  0.3751E+00  0.7673E+01
  -1.306  0.3718E+00  0.7676E+01
  -1.296  0.3686E+00  0.7680E+01
  -1.286  0.3654E+00  0.7684E+01
  -1.276  0.3621E+00  0.7687E+01
  -1.266  0.3588E+00  0.7691E+01
  -1.256  0.3556E+00  0.7694E+01
  -1.246  0.3523E+00  0.7698E+01
  -1.236  0.3490E+00  0.7701E+01
  -1.226  0.3457E+00  0.7705E+01
  -1.216  0.3425E+00  0.7708E+01
  -1.206  0.3392E+00  0.7712E+01
  -1.196  0.3359E+00  0.7715E+01
  -1.186  0.3325E+00  0.7719E+01
  -1.176  0.3292E+00  0.7722E+01
  -1.166  0.3259E+00  0.7725E+01
  -1.156  0.3226E+00  0.7728E+01
  -1.146  0.3192E+00  0.7732E+01
  -1.136  0.3159E+00  0.7735E+01
  -1.126  0.3125E+00  0.7738E+01
  -1.116  0.3092E+00  0.7741E+01
  -1.106  0.3058E+00  0.7744E+01
  -1.096  0.3024E+00  0.7747E+01
  -1.086  0.2991E+00  0.7750E+01
  -1.076  0.2957E+00  0.7753E+01
  -1.066  0.2923E+00  0.7756E+01
  -1.056  0.2889E+00  0.7759E+01
  -1.046  0.2855E+00  0.7762E+01
  -1.036  0.2821E+00  0.7765E+01
  -1.026  0.2787E+00  0.7767E+01
  -1.016  0.2752E+00  0.7770E+01
  -1.006  0.2718E+00  0.7773E+01
  -0.996  0.2684E+00  0.7776E+01
  -0.986  0.2649E+00  0.7778E+01
  -0.976  0.2615E+00  0.7781E+01
  -0.966  0.2580E+00  0.7784E+01
  -0.956  0.2545E+00  0.7786E+01
  -0.946  0.2511E+00  0.7789E+01
  -0.936  0.2476E+00  0.7791E+01
  -0.926  0.2441E+00  0.7794E+01
  -0.916  0.2406E+00  0.7796E+01
  -0.906  0.2371E+00  0.7798E+01
  -0.896  0.2336E+00  0.7801E+01
  -0.886  0.2301E+00  0.7803E+01
  -0.876  0.2266E+00  0.7805E+01
  -0.866  0.2241E+00  0.7808E+01
  -0.856  0.2235E+00  0.7810E+01
  -0.846  0.2251E+00  0.7812E+01
  -0.836  0.2267E+00  0.7814E+01
  -0.826  0.2284E+00  0.7817E+01
  -0.816  0.2300E+00  0.7819E+01
  -0.806  0.2317E+00  0.7821E+01
  -0.796  0.2333E+00  0.7824E+01
  -0.786  0.2366E+00  0.7826E+01
  -0.776  0.2361E+00  0.7828E+01
  -0.766  0.2346E+00  0.7831E+01
  -0.756  0.2332E+00  0.7833E+01
  -0.746  0.2320E+00  0.7835E+01
  -0.736  0.2309E+00  0.7838E+01
  -0.726  0.2300E+00  0.7840E+01
  -0.716  0.2289E+00  0.7842E+01
  -0.706  0.2278E+00  0.7844E+01
  -0.696  0.2265E+00  0.7847E+01
  -0.686  0.2252E+00  0.7849E+01
  -0.676  0.2238E+00  0.7851E+01
  -0.666  0.2224E+00  0.7853E+01
  -0.656  0.2210E+00  0.7856E+01
  -0.646  0.2196E+00  0.7858E+01
  -0.636  0.2181E+00  0.7860E+01
  -0.626  0.2167E+00  0.7862E+01
  -0.616  0.2152E+00  0.7864E+01
  -0.606  0.2137E+00  0.7867E+01
  -0.596  0.2122E+00  0.7869E+01
  -0.586  0.2106E+00  0.7871E+01
  -0.576  0.2091E+00  0.7873E+01
  -0.566  0.2075E+00  0.7875E+01
  -0.556  0.2059E+00  0.7877E+01
  -0.546  0.2043E+00  0.7879E+01
  -0.536  0.2026E+00  0.7881E+01
  -0.526  0.2010E+00  0.7883E+01
  -0.516  0.1993E+00  0.7885E+01
  -0.506  0.1977E+00  0.7887E+01
  -0.496  0.1960E+00  0.7889E+01
  -0.486  0.1942E+00  0.7891E+01
  -0.476  0.1924E+00  0.7893E+01
  -0.466  0.1913E+00  0.7895E+01
  -0.456  0.1938E+00  0.7897E+01
  -0.446  0.1970E+00  0.7899E+01
  -0.436  0.2002E+00  0.7901E+01
  -0.426  0.2035E+00  0.7903E+01
  -0.416  0.2058E+00  0.7905E+01
  -0.406  0.1965E+00  0.7907E+01
  -0.396  0.1807E+00  0.7909E+01
  -0.386  0.1936E+00  0.7911E+01
  -0.376  0.1917E+00  0.7913E+01
  -0.366  0.1740E+00  0.7914E+01
  -0.356  0.1553E+00  0.7916E+01
  -0.346  0.1407E+00  0.7918E+01
  -0.336  0.1275E+00  0.7919E+01
  -0.326  0.1158E+00  0.7920E+01
  -0.316  0.1084E+00  0.7921E+01
  -0.306  0.1027E+00  0.7922E+01
  -0.296  0.9875E-01  0.7923E+01
  -0.286  0.9659E-01  0.7924E+01
  -0.276  0.9599E-01  0.7925E+01
  -0.266  0.9677E-01  0.7926E+01
  -0.256  0.9721E-01  0.7927E+01
  -0.246  0.9697E-01  0.7928E+01
  -0.236  0.9654E-01  0.7929E+01
  -0.226  0.9610E-01  0.7930E+01
  -0.216  0.9565E-01  0.7931E+01
  -0.206  0.9520E-01  0.7932E+01
  -0.196  0.9474E-01  0.7933E+01
  -0.186  0.9428E-01  0.7934E+01
  -0.176  0.9381E-01  0.7935E+01
  -0.166  0.9334E-01  0.7936E+01
  -0.156  0.9286E-01  0.7937E+01
  -0.146  0.9238E-01  0.7938E+01
  -0.136  0.9190E-01  0.7938E+01
  -0.126  0.9141E-01  0.7939E+01
  -0.116  0.9091E-01  0.7940E+01
  -0.106  0.9041E-01  0.7941E+01
  -0.096  0.8991E-01  0.7942E+01
  -0.086  0.8940E-01  0.7943E+01
  -0.076  0.8888E-01  0.7944E+01
  -0.066  0.8837E-01  0.7945E+01
  -0.056  0.8784E-01  0.7946E+01
  -0.046  0.8731E-01  0.7947E+01
  -0.036  0.8678E-01  0.7947E+01
  -0.026  0.8624E-01  0.7948E+01
  -0.016  0.8570E-01  0.7949E+01
  -0.006  0.8515E-01  0.7950E+01
   0.004  0.8460E-01  0.7951E+01
   0.014  0.8404E-01  0.7952E+01
   0.024  0.8348E-01  0.7953E+01
   0.034  0.8292E-01  0.7953E+01
   0.044  0.8235E-01  0.7954E+01
   0.054  0.8177E-01  0.7955E+01
   0.064  0.8119E-01  0.7956E+01
   0.074  0.8060E-01  0.7957E+01
   0.084  0.8001E-01  0.7957E+01
   0.094  0.7942E-01  0.7958E+01
   0.104  0.7882E-01  0.7959E+01
   0.114  0.7822E-01  0.7960E+01
   0.124  0.7761E-01  0.7961E+01
   0.134  0.7699E-01  0.7961E+01
   0.144  0.7637E-01  0.7962E+01
   0.154  0.7575E-01  0.7963E+01
   0.164  0.7512E-01  0.7964E+01
   0.174  0.7449E-01  0.7964E+01
   0.184  0.7385E-01  0.7965E+01
   0.194  0.7321E-01  0.7966E+01
   0.204  0.7256E-01  0.7967E+01
   0.214  0.7191E-01  0.7967E+01
   0.224  0.7126E-01  0.7968E+01
   0.234  0.7059E-01  0.7969E+01
   0.244  0.6993E-01  0.7969E+01
   0.254  0.6926E-01  0.7970E+01
   0.264  0.6858E-01  0.7971E+01
   0.274  0.6790E-01  0.7972E+01
   0.284  0.6722E-01  0.7972E+01
   0.294  0.6653E-01  0.7973E+01
   0.304  0.6583E-01  0.7974E+01
   0.314  0.6514E-01  0.7974E+01
   0.324  0.6443E-01  0.7975E+01
   0.334  0.6372E-01  0.7975E+01
   0.344  0.6301E-01  0.7976E+01
   0.354  0.6229E-01  0.7977E+01
   0.364  0.6157E-01  0.7977E+01
   0.374  0.6084E-01  0.7978E+01
   0.384  0.6011E-01  0.7979E+01
   0.394  0.5937E-01  0.7979E+01
   0.404  0.5863E-01  0.7980E+01
   0.414  0.5788E-01  0.7980E+01
   0.424  0.5713E-01  0.7981E+01
   0.434  0.5638E-01  0.7981E+01
   0.444  0.5562E-01  0.7982E+01
   0.454  0.5485E-01  0.7983E+01
   0.464  0.5408E-01  0.7983E+01
   0.474  0.5331E-01  0.7984E+01
   0.484  0.5253E-01  0.7984E+01
   0.494  0.5174E-01  0.7985E+01
   0.504  0.5095E-01  0.7985E+01
   0.514  0.5016E-01  0.7986E+01
   0.524  0.4936E-01  0.7986E+01
   0.534  0.4856E-01  0.7987E+01
   0.544  0.4775E-01  0.7987E+01
   0.554  0.4694E-01  0.7988E+01
   0.564  0.4612E-01  0.7988E+01
   0.574  0.4530E-01  0.7989E+01
   0.584  0.4447E-01  0.7989E+01
   0.594  0.4364E-01  0.7989E+01
   0.604  0.4280E-01  0.7990E+01
   0.614  0.4196E-01  0.7990E+01
   0.624  0.4112E-01  0.7991E+01
   0.634  0.4027E-01  0.7991E+01
   0.644  0.3943E-01  0.7992E+01
   0.654  0.3858E-01  0.7992E+01
   0.664  0.3774E-01  0.7992E+01
   0.674  0.3690E-01  0.7993E+01
   0.684  0.3605E-01  0.7993E+01
   0.694  0.3521E-01  0.7993E+01
   0.704  0.3438E-01  0.7994E+01
   0.714  0.3356E-01  0.7994E+01
   0.724  0.3274E-01  0.7994E+01
   0.734  0.3193E-01  0.7995E+01
   0.744  0.3154E-01  0.7995E+01
   0.754  0.3121E-01  0.7995E+01
   0.764  0.3104E-01  0.7996E+01
   0.774  0.3125E-01  0.7996E+01
   0.784  0.3146E-01  0.7996E+01
   0.794  0.3165E-01  0.7997E+01
   0.804  0.3183E-01  0.7997E+01
   0.814  0.3201E-01  0.7997E+01
   0.824  0.3217E-01  0.7998E+01
   0.834  0.3233E-01  0.7998E+01
   0.844  0.3247E-01  0.7998E+01
   0.854  0.3261E-01  0.7999E+01
   0.864  0.3273E-01  0.7999E+01
   0.874  0.3285E-01  0.7999E+01
   0.884  0.3295E-01  0.8000E+01
   0.894  0.3305E-01  0.8000E+01
   0.904  0.3313E-01  0.8000E+01
   0.914  0.3321E-01  0.8001E+01
   0.924  0.3327E-01  0.8001E+01
   0.934  0.3332E-01  0.8001E+01
   0.944  0.3337E-01  0.8002E+01
   0.954  0.3340E-01  0.8002E+01
   0.964  0.3343E-01  0.8002E+01
   0.974  0.3344E-01  0.8003E+01
   0.984  0.3345E-01  0.8003E+01
   0.994  0.3344E-01  0.8003E+01
   1.004  0.3342E-01  0.8004E+01
   1.014  0.3340E-01  0.8004E+01
   1.024  0.3336E-01  0.8004E+01
   1.034  0.3332E-01  0.8005E+01
   1.044  0.3334E-01  0.8005E+01
   1.054  0.3378E-01  0.8005E+01
   1.064  0.3436E-01  0.8006E+01
   1.074  0.3525E-01  0.8006E+01
   1.084  0.3614E-01  0.8006E+01
   1.094  0.3704E-01  0.8007E+01
   1.104  0.3794E-01  0.8007E+01
   1.114  0.3885E-01  0.8007E+01
   1.124  0.3976E-01  0.8008E+01
   1.134  0.4067E-01  0.8008E+01
   1.144  0.4159E-01  0.8009E+01
   1.154  0.4251E-01  0.8009E+01
   1.164  0.4342E-01  0.8009E+01
   1.174  0.4434E-01  0.8010E+01
   1.184  0.4525E-01  0.8010E+01
   1.194  0.4616E-01  0.8011E+01
   1.204  0.4706E-01  0.8011E+01
   1.214  0.4796E-01  0.8012E+01
   1.224  0.4886E-01  0.8012E+01
   1.234  0.4975E-01  0.8013E+01
   1.244  0.5063E-01  0.8013E+01
   1.254  0.5151E-01  0.8014E+01
   1.264  0.5238E-01  0.8014E+01
   1.274  0.5325E-01  0.8015E+01
   1.284  0.5411E-01  0.8015E+01
   1.294  0.5496E-01  0.8016E+01
   1.304  0.5582E-01  0.8016E+01
   1.314  0.5666E-01  0.8017E+01
   1.324  0.5750E-01  0.8018E+01
   1.334  0.5834E-01  0.8018E+01
   1.344  0.5917E-01  0.8019E+01
   1.354  0.5999E-01  0.8019E+01
   1.364  0.6081E-01  0.8020E+01
   1.374  0.6163E-01  0.8021E+01
   1.384  0.6244E-01  0.8021E+01
   1.394  0.6324E-01  0.8022E+01
   1.404  0.6404E-01  0.8022E+01
   1.414  0.6483E-01  0.8023E+01
   1.424  0.6562E-01  0.8024E+01
   1.434  0.6640E-01  0.8024E+01
   1.444  0.6718E-01  0.8025E+01
   1.454  0.6795E-01  0.8026E+01
   1.464  0.6872E-01  0.8026E+01
   1.474  0.6948E-01  0.8027E+01
   1.484  0.7023E-01  0.8028E+01
   1.494  0.7098E-01  0.8029E+01
   1.504  0.7173E-01  0.8029E+01
   1.514  0.7247E-01  0.8030E+01
   1.524  0.7320E-01  0.8031E+01
   1.534  0.7393E-01  0.8031E+01
   1.544  0.7466E-01  0.8032E+01
   1.554  0.7538E-01  0.8033E+01
   1.564  0.7609E-01  0.8034E+01
   1.574  0.7680E-01  0.8034E+01
   1.584  0.7750E-01  0.8035E+01
   1.594  0.7820E-01  0.8036E+01
   1.604  0.7889E-01  0.8037E+01
   1.614  0.7958E-01  0.8038E+01
   1.624  0.8026E-01  0.8038E+01
   1.634  0.8094E-01  0.8039E+01
   1.644  0.8161E-01  0.8040E+01
   1.654  0.8227E-01  0.8041E+01
   1.664  0.8293E-01  0.8042E+01
   1.674  0.8359E-01  0.8042E+01
   1.684  0.8424E-01  0.8043E+01
   1.694  0.8488E-01  0.8044E+01
   1.704  0.8552E-01  0.8045E+01
   1.714  0.8616E-01  0.8046E+01
   1.724  0.8679E-01  0.8047E+01
   1.734  0.8741E-01  0.8048E+01
   1.744  0.8803E-01  0.8048E+01
   1.754  0.8864E-01  0.8049E+01
   1.764  0.8925E-01  0.8050E+01
   1.774  0.8985E-01  0.8051E+01
   1.784  0.9045E-01  0.8052E+01
   1.794  0.9104E-01  0.8053E+01
   1.804  0.9163E-01  0.8054E+01
   1.814  0.9221E-01  0.8055E+01
   1.824  0.9278E-01  0.8056E+01
   1.834  0.9335E-01  0.8057E+01
   1.844  0.9392E-01  0.8058E+01
   1.854  0.9448E-01  0.8058E+01
   1.864  0.9503E-01  0.8059E+01
   1.874  0.9558E-01  0.8060E+01
   1.884  0.9613E-01  0.8061E+01
   1.894  0.9667E-01  0.8062E+01
   1.904  0.9720E-01  0.8063E+01
   1.914  0.9773E-01  0.8064E+01
   1.924  0.9825E-01  0.8065E+01
   1.934  0.9877E-01  0.8066E+01
   1.944  0.9928E-01  0.8067E+01
   1.954  0.9979E-01  0.8068E+01
   1.964  0.1003E+00  0.8069E+01
   1.974  0.1006E+00  0.8070E+01
   1.984  0.1001E+00  0.8071E+01
   1.994  0.9973E-01  0.8072E+01
   2.004  0.1012E+00  0.8073E+01
   2.014  0.1049E+00  0.8074E+01
   2.024  0.1109E+00  0.8075E+01
   2.034  0.1190E+00  0.8076E+01
   2.044  0.1294E+00  0.8078E+01
   2.054  0.1420E+00  0.8079E+01
   2.064  0.1586E+00  0.8081E+01
   2.074  0.1860E+00  0.8082E+01
   2.084  0.2149E+00  0.8084E+01
   2.094  0.2468E+00  0.8087E+01
   2.104  0.2851E+00  0.8089E+01
   2.114  0.3118E+00  0.8092E+01
   2.124  0.3119E+00  0.8095E+01
   2.134  0.2993E+00  0.8098E+01
   2.144  0.2768E+00  0.8101E+01
   2.154  0.2599E+00  0.8104E+01
   2.164  0.2752E+00  0.8107E+01
   2.174  0.2610E+00  0.8109E+01
   2.184  0.2500E+00  0.8112E+01
   2.194  0.2391E+00  0.8114E+01
   2.204  0.2285E+00  0.8117E+01
   2.214  0.2832E+00  0.8119E+01
   2.224  0.2837E+00  0.8122E+01
   2.234  0.2881E+00  0.8125E+01
   2.244  0.3050E+00  0.8128E+01
   2.254  0.3261E+00  0.8131E+01
   2.264  0.3192E+00  0.8134E+01
   2.274  0.3095E+00  0.8137E+01
   2.284  0.2998E+00  0.8140E+01
   2.294  0.2902E+00  0.8143E+01
   2.304  0.2807E+00  0.8146E+01
   2.314  0.2711E+00  0.8149E+01
   2.324  0.2617E+00  0.8152E+01
   2.334  0.2523E+00  0.8154E+01
   2.344  0.2429E+00  0.8157E+01
   2.354  0.2467E+00  0.8159E+01
   2.364  0.2550E+00  0.8162E+01
   2.374  0.2633E+00  0.8164E+01
   2.384  0.2715E+00  0.8167E+01
   2.394  0.2798E+00  0.8170E+01
   2.404  0.2881E+00  0.8173E+01
   2.414  0.2963E+00  0.8175E+01
   2.424  0.3046E+00  0.8178E+01
   2.434  0.3130E+00  0.8182E+01
   2.444  0.3215E+00  0.8185E+01
   2.454  0.3300E+00  0.8188E+01
   2.464  0.3385E+00  0.8191E+01
   2.474  0.3487E+00  0.8195E+01
   2.484  0.3618E+00  0.8198E+01
   2.494  0.3748E+00  0.8202E+01
   2.504  0.3878E+00  0.8206E+01
   2.514  0.4006E+00  0.8210E+01
   2.524  0.4133E+00  0.8214E+01
   2.534  0.4259E+00  0.8218E+01
   2.544  0.4385E+00  0.8222E+01
   2.554  0.4511E+00  0.8227E+01
   2.564  0.4814E+00  0.8231E+01
   2.574  0.5505E+00  0.8237E+01
   2.584  0.6194E+00  0.8242E+01
   2.594  0.6880E+00  0.8249E+01
   2.604  0.7565E+00  0.8256E+01
   2.614  0.8194E+00  0.8264E+01
   2.624  0.8657E+00  0.8272E+01
   2.634  0.8948E+00  0.8281E+01
   2.644  0.9068E+00  0.8290E+01
   2.654  0.9016E+00  0.8299E+01
   2.664  0.8793E+00  0.8308E+01
   2.674  0.8398E+00  0.8317E+01
   2.684  0.7831E+00  0.8325E+01
   2.694  0.7227E+00  0.8333E+01
   2.704  0.6910E+00  0.8340E+01
   2.714  0.6529E+00  0.8346E+01
   2.724  0.6056E+00  0.8353E+01
   2.734  0.5492E+00  0.8358E+01
   2.744  0.4836E+00  0.8364E+01
   2.754  0.4189E+00  0.8368E+01
   2.764  0.4128E+00  0.8372E+01
   2.774  0.4167E+00  0.8376E+01
   2.784  0.4210E+00  0.8381E+01
   2.794  0.4265E+00  0.8385E+01
   2.804  0.4328E+00  0.8389E+01
   2.814  0.4389E+00  0.8393E+01
   2.824  0.4449E+00  0.8398E+01
   2.834  0.4509E+00  0.8402E+01
   2.844  0.4567E+00  0.8407E+01
   2.854  0.4601E+00  0.8411E+01
   2.864  0.4576E+00  0.8416E+01
   2.874  0.4530E+00  0.8421E+01
   2.884  0.4485E+00  0.8425E+01
   2.894  0.4441E+00  0.8430E+01
   2.904  0.4397E+00  0.8434E+01
   2.914  0.4354E+00  0.8438E+01
   2.924  0.4311E+00  0.8443E+01
   2.934  0.4268E+00  0.8447E+01
   2.944  0.4227E+00  0.8451E+01
   2.954  0.4185E+00  0.8455E+01
   2.964  0.4144E+00  0.8460E+01
   2.974  0.4104E+00  0.8464E+01
   2.984  0.4064E+00  0.8468E+01
   2.994  0.4025E+00  0.8472E+01
   3.004  0.3986E+00  0.8476E+01
   3.014  0.3948E+00  0.8480E+01
   3.024  0.3910E+00  0.8484E+01
   3.034  0.3873E+00  0.8488E+01
   3.044  0.3836E+00  0.8491E+01
   3.054  0.3800E+00  0.8495E+01
   3.064  0.3764E+00  0.8499E+01
   3.074  0.3728E+00  0.8503E+01
   3.084  0.3694E+00  0.8507E+01
   3.094  0.3659E+00  0.8510E+01
   3.104  0.3626E+00  0.8514E+01
   3.114  0.3592E+00  0.8517E+01
   3.124  0.3560E+00  0.8521E+01
   3.134  0.3527E+00  0.8525E+01
   3.144  0.3495E+00  0.8528E+01
   3.154  0.3464E+00  0.8532E+01
   3.164  0.3433E+00  0.8535E+01
   3.174  0.3403E+00  0.8538E+01
   3.184  0.3373E+00  0.8542E+01
   3.194  0.3344E+00  0.8545E+01
   3.204  0.3315E+00  0.8549E+01
   3.214  0.3287E+00  0.8552E+01
   3.224  0.3260E+00  0.8555E+01
   3.234  0.3232E+00  0.8558E+01
   3.244  0.3205E+00  0.8562E+01
   3.254  0.3179E+00  0.8565E+01
   3.264  0.3152E+00  0.8568E+01
   3.274  0.3125E+00  0.8571E+01
   3.284  0.3097E+00  0.8574E+01
   3.294  0.3070E+00  0.8577E+01
   3.304  0.3043E+00  0.8580E+01
   3.314  0.3015E+00  0.8583E+01
   3.324  0.2987E+00  0.8586E+01
   3.334  0.2960E+00  0.8589E+01
   3.344  0.2932E+00  0.8592E+01
   3.354  0.2903E+00  0.8595E+01
   3.364  0.2883E+00  0.8598E+01
   3.374  0.2893E+00  0.8601E+01
   3.384  0.2903E+00  0.8604E+01
   3.394  0.2913E+00  0.8607E+01
   3.404  0.2926E+00  0.8610E+01
   3.414  0.2943E+00  0.8613E+01
   3.424  0.2960E+00  0.8616E+01
   3.434  0.2995E+00  0.8619E+01
   3.444  0.3029E+00  0.8622E+01
   3.454  0.3046E+00  0.8625E+01
   3.464  0.3020E+00  0.8628E+01
   3.474  0.2993E+00  0.8631E+01
   3.484  0.2968E+00  0.8634E+01
   3.494  0.2945E+00  0.8637E+01
   3.504  0.2924E+00  0.8639E+01
   3.514  0.2902E+00  0.8642E+01
   3.524  0.2880E+00  0.8645E+01
   3.534  0.2858E+00  0.8648E+01
   3.544  0.2836E+00  0.8651E+01
   3.554  0.2813E+00  0.8654E+01
   3.564  0.2789E+00  0.8657E+01
   3.574  0.2766E+00  0.8659E+01
   3.584  0.2741E+00  0.8662E+01
   3.594  0.2716E+00  0.8665E+01
   3.604  0.2697E+00  0.8668E+01
   3.614  0.2688E+00  0.8670E+01
   3.624  0.2679E+00  0.8673E+01
   3.634  0.2670E+00  0.8676E+01
   3.644  0.2661E+00  0.8678E+01
   3.654  0.2651E+00  0.8681E+01
   3.664  0.2643E+00  0.8684E+01
   3.674  0.2635E+00  0.8686E+01
   3.684  0.2627E+00  0.8689E+01
   3.694  0.2607E+00  0.8692E+01
   3.704  0.2585E+00  0.8694E+01
   3.714  0.2599E+00  0.8697E+01
   3.724  0.2643E+00  0.8699E+01
   3.734  0.2700E+00  0.8702E+01
   3.744  0.2762E+00  0.8705E+01
   3.754  0.3032E+00  0.8708E+01
   3.764  0.3285E+00  0.8711E+01
   3.774  0.3523E+00  0.8714E+01
   3.784  0.3745E+00  0.8718E+01
   3.794  0.3952E+00  0.8722E+01
   3.804  0.4144E+00  0.8726E+01
   3.814  0.4321E+00  0.8730E+01
   3.824  0.4483E+00  0.8734E+01
   3.834  0.4631E+00  0.8739E+01
   3.844  0.4764E+00  0.8744E+01
   3.854  0.4882E+00  0.8748E+01
   3.864  0.4985E+00  0.8753E+01
   3.874  0.5074E+00  0.8758E+01
   3.884  0.5147E+00  0.8764E+01
   3.894  0.5206E+00  0.8769E+01
   3.904  0.5250E+00  0.8774E+01
   3.914  0.5280E+00  0.8779E+01
   3.924  0.5294E+00  0.8784E+01
   3.934  0.5379E+00  0.8790E+01
   3.944  0.5429E+00  0.8795E+01
   3.954  0.5221E+00  0.8801E+01
   3.964  0.4757E+00  0.8806E+01
   3.974  0.4530E+00  0.8810E+01
   3.984  0.4534E+00  0.8815E+01
   3.994  0.4537E+00  0.8819E+01
   4.004  0.4540E+00  0.8824E+01
   4.014  0.4544E+00  0.8828E+01
   4.024  0.4547E+00  0.8833E+01
   4.034  0.4550E+00  0.8837E+01
   4.044  0.4554E+00  0.8842E+01
   4.054  0.4557E+00  0.8846E+01
   4.064  0.4561E+00  0.8851E+01
   4.074  0.4564E+00  0.8856E+01
   4.084  0.4568E+00  0.8860E+01
   4.094  0.4571E+00  0.8865E+01
   4.104  0.4575E+00  0.8869E+01
   4.114  0.4578E+00  0.8874E+01
   4.124  0.4582E+00  0.8878E+01
   4.134  0.4586E+00  0.8883E+01
   4.144  0.4589E+00  0.8888E+01
   4.154  0.4593E+00  0.8892E+01
   4.164  0.4597E+00  0.8897E+01
   4.174  0.4600E+00  0.8901E+01
   4.184  0.4604E+00  0.8906E+01
   4.194  0.4608E+00  0.8911E+01
   4.204  0.4612E+00  0.8915E+01
   4.214  0.4616E+00  0.8920E+01
   4.224  0.4619E+00  0.8924E+01
   4.234  0.4623E+00  0.8929E+01
   4.244  0.4627E+00  0.8934E+01
   4.254  0.4631E+00  0.8938E+01
   4.264  0.4635E+00  0.8943E+01
   4.274  0.4639E+00  0.8948E+01
   4.284  0.4643E+00  0.8952E+01
   4.294  0.4647E+00  0.8957E+01
   4.304  0.4651E+00  0.8962E+01
   4.314  0.4655E+00  0.8966E+01
   4.324  0.4659E+00  0.8971E+01
   4.334  0.4663E+00  0.8976E+01
   4.344  0.4667E+00  0.8980E+01
   4.354  0.4671E+00  0.8985E+01
   4.364  0.4675E+00  0.8990E+01
   4.374  0.4680E+00  0.8994E+01
   4.384  0.4684E+00  0.8999E+01
   4.394  0.4689E+00  0.9004E+01
   4.404  0.4694E+00  0.9008E+01
   4.414  0.4700E+00  0.9013E+01
   4.424  0.4676E+00  0.9018E+01
   4.434  0.4650E+00  0.9022E+01
   4.444  0.4625E+00  0.9027E+01
   4.454  0.4602E+00  0.9032E+01
   4.464  0.4580E+00  0.9036E+01
   4.474  0.4558E+00  0.9041E+01
   4.484  0.4538E+00  0.9045E+01
   4.494  0.4519E+00  0.9050E+01
   4.504  0.4501E+00  0.9054E+01
   4.514  0.4483E+00  0.9059E+01
   4.524  0.4467E+00  0.9063E+01
   4.534  0.4452E+00  0.9068E+01
   4.544  0.4437E+00  0.9072E+01
   4.554  0.4424E+00  0.9077E+01
   4.564  0.4411E+00  0.9081E+01
   4.574  0.4400E+00  0.9085E+01
   4.584  0.4389E+00  0.9090E+01
   4.594  0.4390E+00  0.9094E+01
   4.604  0.4399E+00  0.9099E+01
   4.614  0.4406E+00  0.9103E+01
   4.624  0.4409E+00  0.9107E+01
   4.634  0.4400E+00  0.9112E+01
   4.644  0.4380E+00  0.9116E+01
   4.654  0.4342E+00  0.9121E+01
   4.664  0.4301E+00  0.9125E+01
   4.674  0.4276E+00  0.9129E+01
   4.684  0.4271E+00  0.9133E+01
   4.694  0.4271E+00  0.9138E+01
   4.704  0.4270E+00  0.9142E+01
   4.714  0.4269E+00  0.9146E+01
   4.724  0.4268E+00  0.9151E+01
   4.734  0.4266E+00  0.9155E+01
   4.744  0.4265E+00  0.9159E+01
   4.754  0.4264E+00  0.9163E+01
   4.764  0.4262E+00  0.9168E+01
   4.774  0.4261E+00  0.9172E+01
   4.784  0.4260E+00  0.9176E+01
   4.794  0.4258E+00  0.9180E+01
   4.804  0.4257E+00  0.9185E+01
   4.814  0.4256E+00  0.9189E+01
   4.824  0.4255E+00  0.9193E+01
   4.834  0.4254E+00  0.9197E+01
   4.844  0.4254E+00  0.9202E+01
   4.854  0.4253E+00  0.9206E+01
   4.864  0.4253E+00  0.9210E+01
   4.874  0.4252E+00  0.9214E+01
   4.884  0.4252E+00  0.9219E+01
   4.894  0.4252E+00  0.9223E+01
   4.904  0.4252E+00  0.9227E+01
   4.914  0.4252E+00  0.9231E+01
   4.924  0.4252E+00  0.9236E+01
   4.934  0.4252E+00  0.9240E+01
   4.944  0.4253E+00  0.9244E+01
   4.954  0.4254E+00  0.9248E+01
   4.964  0.4254E+00  0.9253E+01
   4.974  0.4255E+00  0.9257E+01
   4.984  0.4256E+00  0.9261E+01
   4.994  0.4257E+00  0.9265E+01
   5.004  0.4259E+00  0.9270E+01
   5.014  0.4260E+00  0.9274E+01
   5.024  0.4261E+00  0.9278E+01
   5.034  0.4263E+00  0.9283E+01
   5.044  0.4265E+00  0.9287E+01
   5.054  0.4267E+00  0.9291E+01
   5.064  0.4268E+00  0.9295E+01
   5.074  0.4271E+00  0.9300E+01
   5.084  0.4273E+00  0.9304E+01
   5.094  0.4275E+00  0.9308E+01
   5.104  0.4278E+00  0.9312E+01
   5.114  0.4280E+00  0.9317E+01
   5.124  0.4283E+00  0.9321E+01
   5.134  0.4286E+00  0.9325E+01
   5.144  0.4289E+00  0.9330E+01
   5.154  0.4292E+00  0.9334E+01
   5.164  0.4295E+00  0.9338E+01
   5.174  0.4298E+00  0.9342E+01
   5.184  0.4302E+00  0.9347E+01
   5.194  0.4305E+00  0.9351E+01
   5.204  0.4309E+00  0.9355E+01
   5.214  0.4313E+00  0.9360E+01
   5.224  0.4317E+00  0.9364E+01
   5.234  0.4321E+00  0.9368E+01
   5.244  0.4325E+00  0.9373E+01
   5.254  0.4328E+00  0.9377E+01
   5.264  0.4332E+00  0.9381E+01
   5.274  0.4335E+00  0.9386E+01
   5.284  0.4256E+00  0.9390E+01
   5.294  0.4034E+00  0.9394E+01
   5.304  0.3658E+00  0.9398E+01
   5.314  0.3473E+00  0.9401E+01
   5.324  0.3625E+00  0.9405E+01
   5.334  0.3865E+00  0.9409E+01
   5.344  0.3852E+00  0.9413E+01
   5.354  0.3814E+00  0.9416E+01
   5.364  0.3796E+00  0.9420E+01
   5.374  0.3774E+00  0.9424E+01
   5.384  0.3674E+00  0.9428E+01
   5.394  0.3543E+00  0.9431E+01
   5.404  0.3450E+00  0.9435E+01
   5.414  0.3495E+00  0.9438E+01
   5.424  0.3624E+00  0.9442E+01
   5.434  0.3734E+00  0.9445E+01
   5.444  0.3817E+00  0.9449E+01
   5.454  0.3865E+00  0.9453E+01
   5.464  0.3870E+00  0.9457E+01
   5.474  0.3867E+00  0.9461E+01
   5.484  0.3864E+00  0.9465E+01
   5.494  0.3861E+00  0.9469E+01
   5.504  0.3861E+00  0.9472E+01
   5.514  0.3864E+00  0.9476E+01
   5.524  0.3866E+00  0.9480E+01
   5.534  0.3869E+00  0.9484E+01
   5.544  0.3870E+00  0.9488E+01
   5.554  0.3872E+00  0.9492E+01
   5.564  0.3874E+00  0.9496E+01
   5.574  0.3875E+00  0.9500E+01
   5.584  0.3876E+00  0.9503E+01
   5.594  0.3878E+00  0.9507E+01
   5.604  0.3879E+00  0.9511E+01
   5.614  0.3880E+00  0.9515E+01
   5.624  0.3882E+00  0.9519E+01
   5.634  0.3884E+00  0.9523E+01
   5.644  0.3886E+00  0.9527E+01
   5.654  0.3889E+00  0.9531E+01
   5.664  0.3891E+00  0.9534E+01
   5.674  0.3894E+00  0.9538E+01
   5.684  0.3897E+00  0.9542E+01
   5.694  0.3900E+00  0.9546E+01
   5.704  0.3904E+00  0.9550E+01
   5.714  0.3907E+00  0.9554E+01
   5.724  0.3911E+00  0.9558E+01
   5.734  0.3916E+00  0.9562E+01
   5.744  0.3921E+00  0.9566E+01
   5.754  0.3928E+00  0.9570E+01
   5.764  0.3934E+00  0.9574E+01
   5.774  0.3931E+00  0.9577E+01
   5.784  0.3916E+00  0.9581E+01
   5.794  0.3893E+00  0.9585E+01
   5.804  0.3879E+00  0.9589E+01
   5.814  0.3876E+00  0.9593E+01
   5.824  0.3879E+00  0.9597E+01
   5.834  0.3878E+00  0.9601E+01
   5.844  0.3873E+00  0.9605E+01
   5.854  0.3863E+00  0.9609E+01
   5.864  0.3856E+00  0.9612E+01
   5.874  0.3869E+00  0.9616E+01
   5.884  0.3906E+00  0.9620E+01
   5.894  0.3966E+00  0.9624E+01
   5.904  0.4053E+00  0.9628E+01
   5.914  0.4178E+00  0.9632E+01
   5.924  0.4332E+00  0.9636E+01
   5.934  0.4516E+00  0.9641E+01
   5.944  0.4724E+00  0.9646E+01
   5.954  0.4911E+00  0.9650E+01
   5.964  0.5069E+00  0.9655E+01
   5.974  0.5198E+00  0.9660E+01
   5.984  0.5298E+00  0.9666E+01
   5.994  0.5369E+00  0.9671E+01
   6.004  0.5429E+00  0.9676E+01
   6.014  0.5470E+00  0.9682E+01
   6.024  0.5482E+00  0.9687E+01
   6.034  0.5481E+00  0.9693E+01
   6.044  0.5473E+00  0.9698E+01
   6.054  0.5456E+00  0.9704E+01
   6.064  0.5438E+00  0.9709E+01
   6.074  0.5420E+00  0.9715E+01
   6.084  0.5402E+00  0.9720E+01
   6.094  0.5383E+00  0.9726E+01
   6.104  0.5365E+00  0.9731E+01
   6.114  0.5346E+00  0.9736E+01
   6.124  0.5327E+00  0.9742E+01
   6.134  0.5308E+00  0.9747E+01
   6.144  0.5288E+00  0.9752E+01
   6.154  0.5269E+00  0.9757E+01
   6.164  0.5249E+00  0.9763E+01
   6.174  0.5229E+00  0.9768E+01
   6.184  0.5209E+00  0.9773E+01
   6.194  0.5189E+00  0.9778E+01
   6.204  0.5169E+00  0.9784E+01
   6.214  0.5148E+00  0.9789E+01
   6.224  0.5128E+00  0.9794E+01
   6.234  0.5107E+00  0.9799E+01
   6.244  0.5086E+00  0.9804E+01
   6.254  0.5065E+00  0.9809E+01
   6.264  0.5044E+00  0.9814E+01
   6.274  0.5022E+00  0.9819E+01
   6.284  0.5000E+00  0.9824E+01
   6.294  0.4979E+00  0.9829E+01
   6.304  0.4957E+00  0.9834E+01
   6.314  0.4935E+00  0.9839E+01
   6.324  0.4912E+00  0.9844E+01
   6.334  0.4890E+00  0.9849E+01
   6.344  0.4867E+00  0.9854E+01
   6.354  0.4845E+00  0.9859E+01
   6.364  0.4822E+00  0.9864E+01
   6.374  0.4799E+00  0.9868E+01
   6.384  0.4775E+00  0.9873E+01
   6.394  0.4752E+00  0.9878E+01
   6.404  0.4728E+00  0.9883E+01
   6.414  0.4704E+00  0.9887E+01
   6.424  0.4681E+00  0.9892E+01
   6.434  0.4657E+00  0.9897E+01
   6.444  0.4632E+00  0.9901E+01
   6.454  0.4608E+00  0.9906E+01
   6.464  0.4583E+00  0.9911E+01
   6.474  0.4559E+00  0.9915E+01
   6.484  0.4534E+00  0.9920E+01
   6.494  0.4509E+00  0.9924E+01
   6.504  0.4483E+00  0.9929E+01
   6.514  0.4425E+00  0.9933E+01
   6.524  0.4346E+00  0.9938E+01
   6.534  0.4264E+00  0.9942E+01
   6.544  0.4126E+00  0.9946E+01
   6.554  0.3976E+00  0.9950E+01
   6.564  0.3826E+00  0.9954E+01
   6.574  0.3677E+00  0.9958E+01
   6.584  0.3527E+00  0.9961E+01
   6.594  0.3376E+00  0.9965E+01
   6.604  0.3225E+00  0.9968E+01
   6.614  0.3071E+00  0.9971E+01
   6.624  0.2918E+00  0.9974E+01
   6.634  0.2763E+00  0.9977E+01
   6.644  0.2605E+00  0.9980E+01
   6.654  0.2444E+00  0.9982E+01
   6.664  0.2282E+00  0.9985E+01
   6.674  0.2122E+00  0.9987E+01
   6.684  0.1961E+00  0.9989E+01
   6.694  0.1797E+00  0.9991E+01
   6.704  0.1634E+00  0.9993E+01
   6.714  0.1476E+00  0.9994E+01
   6.724  0.1326E+00  0.9995E+01
   6.734  0.1179E+00  0.9997E+01
   6.744  0.1058E+00  0.9998E+01
   6.754  0.9340E-01  0.9999E+01
   6.764  0.8443E-01  0.1000E+02
   6.774  0.8786E-01  0.1000E+02
   6.784  0.9144E-01  0.1000E+02
   6.794  0.9551E-01  0.1000E+02
   6.804  0.1038E+00  0.1000E+02
   6.814  0.1126E+00  0.1000E+02
   6.824  0.1216E+00  0.1001E+02
   6.834  0.1312E+00  0.1001E+02
   6.844  0.1410E+00  0.1001E+02
   6.854  0.1513E+00  0.1001E+02
   6.864  0.1626E+00  0.1001E+02
   6.874  0.1741E+00  0.1001E+02
   6.884  0.1855E+00  0.1001E+02
   6.894  0.1969E+00  0.1002E+02
   6.904  0.2083E+00  0.1002E+02
   6.914  0.2197E+00  0.1002E+02
   6.924  0.2310E+00  0.1002E+02
   6.934  0.2422E+00  0.1003E+02
   6.944  0.2534E+00  0.1003E+02
   6.954  0.2645E+00  0.1003E+02
   6.964  0.2755E+00  0.1003E+02
   6.974  0.2865E+00  0.1004E+02
   6.984  0.2974E+00  0.1004E+02
   6.994  0.3083E+00  0.1004E+02
   7.004  0.3190E+00  0.1005E+02
   7.014  0.3298E+00  0.1005E+02
   7.024  0.3404E+00  0.1005E+02
   7.034  0.3510E+00  0.1006E+02
   7.044  0.3615E+00  0.1006E+02
   7.054  0.3725E+00  0.1006E+02
   7.064  0.3846E+00  0.1007E+02
   7.074  0.3979E+00  0.1007E+02
   7.084  0.4208E+00  0.1007E+02
   7.094  0.4602E+00  0.1008E+02
   7.104  0.4978E+00  0.1008E+02
   7.114  0.5337E+00  0.1009E+02
   7.124  0.5685E+00  0.1009E+02
   7.134  0.6023E+00  0.1010E+02
   7.144  0.6342E+00  0.1011E+02
   7.154  0.6643E+00  0.1011E+02
   7.164  0.6926E+00  0.1012E+02
   7.174  0.7190E+00  0.1013E+02
   7.184  0.7436E+00  0.1013E+02
   7.194  0.7664E+00  0.1014E+02
   7.204  0.7873E+00  0.1015E+02
   7.214  0.8065E+00  0.1016E+02
   7.224  0.8241E+00  0.1017E+02
   7.234  0.8362E+00  0.1017E+02
   7.244  0.8435E+00  0.1018E+02
   7.254  0.8492E+00  0.1019E+02
   7.264  0.8624E+00  0.1020E+02
   7.274  0.8636E+00  0.1021E+02
   7.284  0.8341E+00  0.1022E+02
   7.294  0.7745E+00  0.1022E+02
   7.304  0.7652E+00  0.1023E+02
   7.314  0.7580E+00  0.1024E+02
   7.324  0.7555E+00  0.1025E+02
   7.334  0.7532E+00  0.1025E+02
   7.344  0.7511E+00  0.1026E+02
   7.354  0.7490E+00  0.1027E+02
   7.364  0.7470E+00  0.1028E+02
   7.374  0.7450E+00  0.1028E+02
   7.384  0.7432E+00  0.1029E+02
   7.394  0.7415E+00  0.1030E+02
   7.404  0.7399E+00  0.1031E+02
   7.414  0.7384E+00  0.1031E+02
   7.424  0.7369E+00  0.1032E+02
   7.434  0.7356E+00  0.1033E+02
   7.444  0.7343E+00  0.1034E+02
   7.454  0.7332E+00  0.1034E+02
   7.464  0.7321E+00  0.1035E+02
   7.474  0.7312E+00  0.1036E+02
   7.484  0.7303E+00  0.1037E+02
   7.494  0.7295E+00  0.1037E+02
   7.504  0.7288E+00  0.1038E+02
   7.514  0.7282E+00  0.1039E+02
   7.524  0.7277E+00  0.1039E+02
   7.534  0.7273E+00  0.1040E+02
   7.544  0.7270E+00  0.1041E+02
   7.554  0.7268E+00  0.1042E+02
   7.564  0.7267E+00  0.1042E+02
   7.574  0.7267E+00  0.1043E+02
   7.584  0.7267E+00  0.1044E+02
   7.594  0.7269E+00  0.1045E+02
   7.604  0.7271E+00  0.1045E+02
   7.614  0.7275E+00  0.1046E+02
   7.624  0.7279E+00  0.1047E+02
   7.634  0.7285E+00  0.1047E+02
   7.644  0.7291E+00  0.1048E+02
   7.654  0.7298E+00  0.1049E+02
   7.664  0.7307E+00  0.1050E+02
   7.674  0.7315E+00  0.1050E+02
   7.684  0.7321E+00  0.1051E+02
   7.694  0.7326E+00  0.1052E+02
   7.704  0.7328E+00  0.1053E+02
   7.714  0.7303E+00  0.1053E+02
   7.724  0.7132E+00  0.1054E+02
   7.734  0.6987E+00  0.1055E+02
   7.744  0.6845E+00  0.1055E+02
   7.754  0.6708E+00  0.1056E+02
   7.764  0.6655E+00  0.1057E+02
   7.774  0.6625E+00  0.1057E+02
   7.784  0.6592E+00  0.1058E+02
   7.794  0.6558E+00  0.1059E+02
   7.804  0.6521E+00  0.1059E+02
   7.814  0.6482E+00  0.1060E+02
   7.824  0.6447E+00  0.1061E+02
   7.834  0.6415E+00  0.1061E+02
   7.844  0.6381E+00  0.1062E+02
   7.854  0.6347E+00  0.1063E+02
   7.864  0.6328E+00  0.1063E+02
   7.874  0.6309E+00  0.1064E+02
   7.884  0.6302E+00  0.1065E+02
   7.894  0.6300E+00  0.1065E+02
   7.904  0.6298E+00  0.1066E+02
   7.914  0.6297E+00  0.1066E+02
   7.924  0.6290E+00  0.1067E+02
   7.934  0.6101E+00  0.1068E+02
   7.944  0.5724E+00  0.1068E+02
   7.954  0.5520E+00  0.1069E+02
   7.964  0.5596E+00  0.1069E+02
   7.974  0.5745E+00  0.1070E+02
   7.984  0.5792E+00  0.1071E+02
   7.994  0.5771E+00  0.1071E+02
   8.004  0.5778E+00  0.1072E+02
   8.014  0.5829E+00  0.1072E+02
   8.024  0.5909E+00  0.1073E+02
   8.034  0.6005E+00  0.1073E+02
   8.044  0.6095E+00  0.1074E+02
   8.054  0.6177E+00  0.1075E+02
   8.064  0.6252E+00  0.1075E+02
   8.074  0.6322E+00  0.1076E+02
   8.084  0.6412E+00  0.1077E+02
   8.094  0.6538E+00  0.1077E+02
   8.104  0.6701E+00  0.1078E+02
   8.114  0.6900E+00  0.1079E+02
   8.124  0.7135E+00  0.1079E+02
   8.134  0.7403E+00  0.1080E+02
   8.144  0.7634E+00  0.1081E+02
   8.154  0.7802E+00  0.1081E+02
   8.164  0.7907E+00  0.1082E+02
   8.174  0.7950E+00  0.1083E+02
   8.184  0.7932E+00  0.1084E+02
   8.194  0.7893E+00  0.1085E+02
   8.204  0.7851E+00  0.1085E+02
   8.214  0.7811E+00  0.1086E+02
   8.224  0.7787E+00  0.1087E+02
   8.234  0.7766E+00  0.1088E+02
   8.244  0.7744E+00  0.1089E+02
   8.254  0.7721E+00  0.1089E+02
   8.264  0.7697E+00  0.1090E+02
   8.274  0.7676E+00  0.1091E+02
   8.284  0.7658E+00  0.1092E+02
   8.294  0.7644E+00  0.1092E+02
   8.304  0.7650E+00  0.1093E+02
   8.314  0.7856E+00  0.1094E+02
   8.324  0.8054E+00  0.1095E+02
   8.334  0.8325E+00  0.1096E+02
   8.344  0.8608E+00  0.1096E+02
   8.354  0.8894E+00  0.1097E+02
   8.364  0.9272E+00  0.1098E+02
   8.374  0.9748E+00  0.1099E+02
   8.384  0.1030E+01  0.1100E+02
   8.394  0.1078E+01  0.1101E+02
   8.404  0.1073E+01  0.1102E+02
   8.414  0.1053E+01  0.1103E+02
   8.424  0.1033E+01  0.1104E+02
   8.434  0.1004E+01  0.1105E+02
   8.444  0.9907E+00  0.1106E+02
   8.454  0.9841E+00  0.1107E+02
   8.464  0.9789E+00  0.1108E+02
   8.474  0.9747E+00  0.1109E+02
   8.484  0.9706E+00  0.1110E+02
   8.494  0.9663E+00  0.1111E+02
   8.504  0.9618E+00  0.1112E+02
   8.514  0.9534E+00  0.1113E+02
   8.524  0.9359E+00  0.1114E+02
   8.534  0.9176E+00  0.1115E+02
   8.544  0.8996E+00  0.1116E+02
   8.554  0.8864E+00  0.1117E+02
   8.564  0.8766E+00  0.1118E+02
   8.574  0.8686E+00  0.1119E+02
   8.584  0.8611E+00  0.1119E+02
   8.594  0.8551E+00  0.1120E+02
   8.604  0.8514E+00  0.1121E+02
   8.614  0.8505E+00  0.1122E+02
   8.624  0.8427E+00  0.1123E+02
   8.634  0.8219E+00  0.1124E+02
   8.644  0.8086E+00  0.1125E+02
   8.654  0.7703E+00  0.1125E+02
   8.664  0.7231E+00  0.1126E+02
   8.674  0.7028E+00  0.1127E+02
   8.684  0.7038E+00  0.1128E+02
   8.694  0.7089E+00  0.1128E+02
   8.704  0.7146E+00  0.1129E+02
   8.714  0.7219E+00  0.1130E+02
   8.724  0.7291E+00  0.1130E+02
   8.734  0.7364E+00  0.1131E+02
   8.744  0.7442E+00  0.1132E+02
   8.754  0.7519E+00  0.1133E+02
   8.764  0.7595E+00  0.1133E+02
   8.774  0.7669E+00  0.1134E+02
   8.784  0.7741E+00  0.1135E+02
   8.794  0.7812E+00  0.1136E+02
   8.804  0.7881E+00  0.1136E+02
   8.814  0.7948E+00  0.1137E+02
   8.824  0.8013E+00  0.1138E+02
   8.834  0.8076E+00  0.1139E+02
   8.844  0.8138E+00  0.1140E+02
   8.854  0.8198E+00  0.1140E+02
   8.864  0.8258E+00  0.1141E+02
   8.874  0.8321E+00  0.1142E+02
   8.884  0.8397E+00  0.1143E+02
   8.894  0.8491E+00  0.1144E+02
   8.904  0.8710E+00  0.1145E+02
   8.914  0.9010E+00  0.1146E+02
   8.924  0.9300E+00  0.1146E+02
   8.934  0.9739E+00  0.1147E+02
   8.944  0.1099E+01  0.1148E+02
   8.954  0.1343E+01  0.1150E+02
   8.964  0.1524E+01  0.1151E+02
   8.974  0.1637E+01  0.1153E+02
   8.984  0.1770E+01  0.1154E+02
   8.994  0.1800E+01  0.1156E+02
   9.004  0.1820E+01  0.1158E+02
   9.014  0.1974E+01  0.1160E+02
   9.024  0.2101E+01  0.1162E+02
   9.034  0.2066E+01  0.1164E+02
   9.044  0.2032E+01  0.1166E+02
   9.054  0.2003E+01  0.1168E+02
   9.064  0.1975E+01  0.1170E+02
   9.074  0.1924E+01  0.1172E+02
   9.084  0.1886E+01  0.1174E+02
   9.094  0.1858E+01  0.1176E+02
   9.104  0.1840E+01  0.1178E+02
   9.114  0.1826E+01  0.1179E+02
   9.124  0.1682E+01  0.1181E+02
   9.134  0.1678E+01  0.1183E+02
   9.144  0.1681E+01  0.1185E+02
   9.154  0.1663E+01  0.1186E+02
   9.164  0.1632E+01  0.1188E+02
   9.174  0.1602E+01  0.1190E+02
   9.184  0.1577E+01  0.1191E+02
   9.194  0.2647E+01  0.1193E+02
   9.204  0.4411E+01  0.1197E+02
   9.214  0.1973E+01  0.1200E+02
   9.224  0.1999E+01  0.1202E+02
   9.234  0.2139E+01  0.1204E+02
   9.244  0.2133E+01  0.1206E+02
   9.254  0.2104E+01  0.1208E+02
   9.264  0.2077E+01  0.1211E+02
   9.274  0.2050E+01  0.1213E+02
   9.284  0.2022E+01  0.1215E+02
   9.294  0.1994E+01  0.1217E+02
   9.304  0.1965E+01  0.1219E+02
   9.314  0.1936E+01  0.1221E+02
   9.324  0.1906E+01  0.1222E+02
   9.334  0.1876E+01  0.1224E+02
   9.344  0.1845E+01  0.1226E+02
   9.354  0.1814E+01  0.1228E+02
   9.364  0.1783E+01  0.1230E+02
   9.374  0.1751E+01  0.1232E+02
   9.384  0.1718E+01  0.1233E+02
   9.394  0.1685E+01  0.1235E+02
   9.404  0.1651E+01  0.1237E+02
   9.414  0.1617E+01  0.1238E+02
   9.424  0.1582E+01  0.1240E+02
   9.434  0.1546E+01  0.1242E+02
   9.444  0.1509E+01  0.1243E+02
   9.454  0.1471E+01  0.1245E+02
   9.464  0.1437E+01  0.1246E+02
   9.474  0.1404E+01  0.1247E+02
   9.484  0.1369E+01  0.1249E+02
   9.494  0.1335E+01  0.1250E+02
   9.504  0.1304E+01  0.1251E+02
   9.514  0.1277E+01  0.1253E+02
   9.524  0.1250E+01  0.1254E+02
   9.534  0.1220E+01  0.1255E+02
   9.544  0.1197E+01  0.1256E+02
   9.554  0.1189E+01  0.1258E+02
   9.564  0.1186E+01  0.1259E+02
   9.574  0.1184E+01  0.1260E+02
   9.584  0.1128E+01  0.1261E+02
   9.594  0.1079E+01  0.1262E+02
   9.604  0.1094E+01  0.1263E+02
   9.614  0.1118E+01  0.1264E+02
   9.624  0.1144E+01  0.1266E+02
   9.634  0.1166E+01  0.1267E+02
   9.644  0.1166E+01  0.1268E+02
   9.654  0.1033E+01  0.1269E+02
   9.664  0.1015E+01  0.1270E+02
   9.674  0.1006E+01  0.1271E+02
   9.684  0.1066E+01  0.1272E+02
   9.694  0.1103E+01  0.1273E+02
   9.704  0.1122E+01  0.1274E+02
   9.714  0.1197E+01  0.1275E+02
   9.724  0.1272E+01  0.1277E+02
   9.734  0.1312E+01  0.1278E+02
   9.744  0.1320E+01  0.1279E+02
   9.754  0.1315E+01  0.1281E+02
   9.764  0.1311E+01  0.1282E+02
   9.774  0.1312E+01  0.1283E+02
   9.784  0.1314E+01  0.1285E+02
   9.794  0.1314E+01  0.1286E+02
   9.804  0.1311E+01  0.1287E+02
   9.814  0.1308E+01  0.1288E+02
   9.824  0.1306E+01  0.1290E+02
   9.834  0.1305E+01  0.1291E+02
   9.844  0.1303E+01  0.1292E+02
   9.854  0.1301E+01  0.1294E+02
   9.864  0.1300E+01  0.1295E+02
   9.874  0.1299E+01  0.1296E+02
   9.884  0.1298E+01  0.1298E+02
   9.894  0.1297E+01  0.1299E+02
   9.904  0.1297E+01  0.1300E+02
   9.914  0.1297E+01  0.1301E+02
   9.924  0.1297E+01  0.1303E+02
   9.934  0.1297E+01  0.1304E+02
   9.944  0.1298E+01  0.1305E+02
   9.954  0.1298E+01  0.1307E+02
   9.964  0.1299E+01  0.1308E+02
   9.974  0.1301E+01  0.1309E+02
   9.984  0.1302E+01  0.1311E+02
   9.994  0.1305E+01  0.1312E+02
  10.004  0.1309E+01  0.1313E+02
  10.014  0.1313E+01  0.1314E+02
  10.024  0.1317E+01  0.1316E+02
  10.034  0.1321E+01  0.1317E+02
  10.044  0.1325E+01  0.1318E+02
  10.054  0.1328E+01  0.1320E+02
  10.064  0.1332E+01  0.1321E+02
  10.074  0.1336E+01  0.1322E+02
  10.084  0.1341E+01  0.1324E+02
  10.094  0.1346E+01  0.1325E+02
  10.104  0.1350E+01  0.1326E+02
  10.114  0.1354E+01  0.1328E+02
  10.124  0.1358E+01  0.1329E+02
  10.134  0.1362E+01  0.1331E+02
  10.144  0.1367E+01  0.1332E+02
  10.154  0.1371E+01  0.1333E+02
  10.164  0.1376E+01  0.1335E+02
  10.174  0.1381E+01  0.1336E+02
  10.184  0.1386E+01  0.1337E+02
  10.194  0.1376E+01  0.1339E+02
  10.204  0.1360E+01  0.1340E+02
  10.214  0.1330E+01  0.1341E+02
  10.224  0.1278E+01  0.1343E+02
  10.234  0.1231E+01  0.1344E+02
  10.244  0.1189E+01  0.1345E+02
  10.254  0.1142E+01  0.1346E+02
  10.264  0.1063E+01  0.1348E+02
  10.274  0.9675E+00  0.1349E+02
  10.284  0.9358E+00  0.1349E+02
  10.294  0.9120E+00  0.1350E+02
  10.304  0.8882E+00  0.1351E+02
  10.314  0.8635E+00  0.1352E+02
  10.324  0.8379E+00  0.1353E+02
  10.334  0.8128E+00  0.1354E+02
  10.344  0.8080E+00  0.1355E+02
  10.354  0.8056E+00  0.1355E+02
  10.364  0.8041E+00  0.1356E+02
  10.374  0.8028E+00  0.1357E+02
  10.384  0.8017E+00  0.1358E+02
  10.394  0.8007E+00  0.1359E+02
  10.404  0.7999E+00  0.1359E+02
  10.414  0.7991E+00  0.1360E+02
  10.424  0.7983E+00  0.1361E+02
  10.434  0.7979E+00  0.1362E+02
  10.444  0.7985E+00  0.1363E+02
  10.454  0.7992E+00  0.1363E+02
  10.464  0.7999E+00  0.1364E+02
  10.474  0.8006E+00  0.1365E+02
  10.484  0.8010E+00  0.1366E+02
  10.494  0.7996E+00  0.1367E+02
  10.504  0.7981E+00  0.1367E+02
  10.514  0.7967E+00  0.1368E+02
  10.524  0.7953E+00  0.1369E+02
  10.534  0.7938E+00  0.1370E+02
  10.544  0.7923E+00  0.1371E+02
  10.554  0.7915E+00  0.1371E+02
  10.564  0.7908E+00  0.1372E+02
  10.574  0.7900E+00  0.1373E+02
  10.584  0.7892E+00  0.1374E+02
  10.594  0.7884E+00  0.1375E+02
  10.604  0.7873E+00  0.1375E+02
  10.614  0.7860E+00  0.1376E+02
  10.624  0.7837E+00  0.1377E+02
  10.634  0.7807E+00  0.1378E+02
  10.644  0.7773E+00  0.1379E+02
  10.654  0.7735E+00  0.1379E+02
  10.664  0.7699E+00  0.1380E+02
  10.674  0.7667E+00  0.1381E+02
  10.684  0.7637E+00  0.1382E+02
  10.694  0.7610E+00  0.1382E+02
  10.704  0.7585E+00  0.1383E+02
  10.714  0.7572E+00  0.1384E+02
  10.724  0.7581E+00  0.1385E+02
  10.734  0.7621E+00  0.1385E+02
  10.744  0.7697E+00  0.1386E+02
  10.754  0.7808E+00  0.1387E+02
  10.764  0.7944E+00  0.1388E+02
  10.774  0.8085E+00  0.1389E+02
  10.784  0.8218E+00  0.1389E+02
  10.794  0.8331E+00  0.1390E+02
  10.804  0.8424E+00  0.1391E+02
  10.814  0.8505E+00  0.1392E+02
  10.824  0.8567E+00  0.1393E+02
  10.834  0.8604E+00  0.1394E+02
  10.844  0.8624E+00  0.1394E+02
  10.854  0.8627E+00  0.1395E+02
  10.864  0.8612E+00  0.1396E+02
  10.874  0.8596E+00  0.1397E+02
  10.884  0.8580E+00  0.1398E+02
  10.894  0.8605E+00  0.1399E+02
  10.904  0.8758E+00  0.1400E+02
  10.914  0.8902E+00  0.1401E+02
  10.924  0.9005E+00  0.1401E+02
  10.934  0.9069E+00  0.1402E+02
  10.944  0.8706E+00  0.1403E+02
  10.954  0.8982E+00  0.1404E+02
  10.964  0.9933E+00  0.1405E+02
  10.974  0.1021E+01  0.1406E+02
  10.984  0.1033E+01  0.1407E+02
  10.994  0.1046E+01  0.1408E+02
  11.004  0.1060E+01  0.1409E+02
  11.014  0.1075E+01  0.1410E+02
  11.024  0.1091E+01  0.1411E+02
  11.034  0.1109E+01  0.1412E+02
  11.044  0.1129E+01  0.1414E+02
  11.054  0.1149E+01  0.1415E+02
  11.064  0.1170E+01  0.1416E+02
  11.074  0.1190E+01  0.1417E+02
  11.084  0.1133E+01  0.1418E+02
  11.094  0.1018E+01  0.1419E+02
  11.104  0.9388E+00  0.1420E+02
  11.114  0.8826E+00  0.1421E+02
  11.124  0.8488E+00  0.1422E+02
  11.134  0.8492E+00  0.1423E+02
  11.144  0.8525E+00  0.1424E+02
  11.154  0.8544E+00  0.1425E+02
  11.164  0.8560E+00  0.1425E+02
  11.174  0.8567E+00  0.1426E+02
  11.184  0.8567E+00  0.1427E+02
  11.194  0.8567E+00  0.1428E+02
  11.204  0.8566E+00  0.1429E+02
  11.214  0.8565E+00  0.1430E+02
  11.224  0.8563E+00  0.1431E+02
  11.234  0.8562E+00  0.1431E+02
  11.244  0.8560E+00  0.1432E+02
  11.254  0.8558E+00  0.1433E+02
  11.264  0.8555E+00  0.1434E+02
  11.274  0.8553E+00  0.1435E+02
  11.284  0.8550E+00  0.1436E+02
  11.294  0.8547E+00  0.1437E+02
  11.304  0.8543E+00  0.1437E+02
  11.314  0.8540E+00  0.1438E+02
  11.324  0.8536E+00  0.1439E+02
  11.334  0.8531E+00  0.1440E+02
  11.344  0.8527E+00  0.1441E+02
  11.354  0.8521E+00  0.1442E+02
  11.364  0.8516E+00  0.1443E+02
  11.374  0.8508E+00  0.1443E+02
  11.384  0.8499E+00  0.1444E+02
  11.394  0.8488E+00  0.1445E+02
  11.404  0.8481E+00  0.1446E+02
  11.414  0.8480E+00  0.1447E+02
  11.424  0.8472E+00  0.1448E+02
  11.434  0.8442E+00  0.1448E+02
  11.444  0.8401E+00  0.1449E+02
  11.454  0.8363E+00  0.1450E+02
  11.464  0.8326E+00  0.1451E+02
  11.474  0.8289E+00  0.1452E+02
  11.484  0.8262E+00  0.1453E+02
  11.494  0.8236E+00  0.1453E+02
  11.504  0.8210E+00  0.1454E+02
  11.514  0.8183E+00  0.1455E+02
  11.524  0.8155E+00  0.1456E+02
  11.534  0.8128E+00  0.1457E+02
  11.544  0.8100E+00  0.1458E+02
  11.554  0.8072E+00  0.1458E+02
  11.564  0.8043E+00  0.1459E+02
  11.574  0.8015E+00  0.1460E+02
  11.584  0.7987E+00  0.1461E+02
  11.594  0.7973E+00  0.1462E+02
  11.604  0.7973E+00  0.1462E+02
  11.614  0.7990E+00  0.1463E+02
  11.624  0.8027E+00  0.1464E+02
  11.634  0.8060E+00  0.1465E+02
  11.644  0.8091E+00  0.1466E+02
  11.654  0.8119E+00  0.1466E+02
  11.664  0.8146E+00  0.1467E+02
  11.674  0.8172E+00  0.1468E+02
  11.684  0.8196E+00  0.1469E+02
  11.694  0.8219E+00  0.1470E+02
  11.704  0.8243E+00  0.1470E+02
  11.714  0.8270E+00  0.1471E+02
  11.724  0.8303E+00  0.1472E+02
  11.734  0.8340E+00  0.1473E+02
  11.744  0.8382E+00  0.1474E+02
  11.754  0.8434E+00  0.1475E+02
  11.764  0.8490E+00  0.1475E+02
  11.774  0.8549E+00  0.1476E+02
  11.784  0.8616E+00  0.1477E+02
  11.794  0.8699E+00  0.1478E+02
  11.804  0.8785E+00  0.1479E+02
  11.814  0.8874E+00  0.1480E+02
  11.824  0.8967E+00  0.1481E+02
  11.834  0.9062E+00  0.1482E+02
  11.844  0.9160E+00  0.1483E+02
  11.854  0.9263E+00  0.1483E+02
  11.864  0.9373E+00  0.1484E+02
  11.874  0.9487E+00  0.1485E+02
  11.884  0.9605E+00  0.1486E+02
  11.894  0.9740E+00  0.1487E+02
  11.904  0.9876E+00  0.1488E+02
  11.914  0.1144E+01  0.1489E+02
  11.924  0.1909E+01  0.1491E+02
  11.934  0.2048E+01  0.1493E+02
  11.944  0.1761E+01  0.1495E+02
  11.954  0.1512E+01  0.1496E+02
  11.964  0.1347E+01  0.1498E+02
  11.974  0.1270E+01  0.1499E+02
  11.984  0.1263E+01  0.1500E+02
  11.994  0.1230E+01  0.1502E+02
  12.004  0.1161E+01  0.1503E+02
  12.014  0.1123E+01  0.1504E+02
  12.024  0.1071E+01  0.1505E+02
  12.034  0.1022E+01  0.1506E+02
  12.044  0.9748E+00  0.1507E+02
  12.054  0.9283E+00  0.1508E+02
  12.064  0.8879E+00  0.1509E+02
  12.074  0.8512E+00  0.1510E+02
  12.084  0.8216E+00  0.1511E+02
  12.094  0.7979E+00  0.1511E+02
  12.104  0.7756E+00  0.1512E+02
  12.114  0.7543E+00  0.1513E+02
  12.124  0.7363E+00  0.1514E+02
  12.134  0.7204E+00  0.1514E+02
  12.144  0.7059E+00  0.1515E+02
  12.154  0.6925E+00  0.1516E+02
  12.164  0.6802E+00  0.1517E+02
  12.174  0.6690E+00  0.1517E+02
  12.184  0.6590E+00  0.1518E+02
  12.194  0.6500E+00  0.1519E+02
  12.204  0.6422E+00  0.1519E+02
  12.214  0.6355E+00  0.1520E+02
  12.224  0.6299E+00  0.1521E+02
  12.234  0.6241E+00  0.1521E+02
  12.244  0.6161E+00  0.1522E+02
  12.254  0.6072E+00  0.1522E+02
  12.264  0.5980E+00  0.1523E+02
  12.274  0.5898E+00  0.1524E+02
  12.284  0.5852E+00  0.1524E+02
  12.294  0.5825E+00  0.1525E+02
  12.304  0.5865E+00  0.1525E+02
  12.314  0.5935E+00  0.1526E+02
  12.324  0.5989E+00  0.1526E+02
  12.334  0.6029E+00  0.1527E+02
  12.344  0.6063E+00  0.1528E+02
  12.354  0.6098E+00  0.1528E+02
  12.364  0.6156E+00  0.1529E+02
  12.374  0.6261E+00  0.1530E+02
  12.384  0.6486E+00  0.1530E+02
  12.394  0.6764E+00  0.1531E+02
  12.404  0.7094E+00  0.1532E+02
  12.414  0.7456E+00  0.1532E+02
  12.424  0.7845E+00  0.1533E+02
  12.434  0.8264E+00  0.1534E+02
  12.444  0.8654E+00  0.1535E+02
  12.454  0.8818E+00  0.1536E+02
  12.464  0.8874E+00  0.1536E+02
  12.474  0.8839E+00  0.1537E+02
  12.484  0.8794E+00  0.1538E+02
  12.494  0.8745E+00  0.1539E+02
  12.504  0.8693E+00  0.1540E+02
  12.514  0.8637E+00  0.1541E+02
  12.524  0.8577E+00  0.1542E+02
  12.534  0.8515E+00  0.1543E+02
  12.544  0.8450E+00  0.1543E+02
  12.554  0.8386E+00  0.1544E+02
  12.564  0.8322E+00  0.1545E+02
  12.574  0.8258E+00  0.1546E+02
  12.584  0.8195E+00  0.1547E+02
  12.594  0.8131E+00  0.1548E+02
  12.604  0.8068E+00  0.1548E+02
  12.614  0.8005E+00  0.1549E+02
  12.624  0.7942E+00  0.1550E+02
  12.634  0.7879E+00  0.1551E+02
  12.644  0.7816E+00  0.1552E+02
  12.654  0.7753E+00  0.1552E+02
  12.664  0.7691E+00  0.1553E+02
  12.674  0.7629E+00  0.1554E+02
  12.684  0.7566E+00  0.1555E+02
  12.694  0.7505E+00  0.1555E+02
  12.704  0.7443E+00  0.1556E+02
  12.714  0.7381E+00  0.1557E+02
  12.724  0.7320E+00  0.1558E+02
  12.734  0.7258E+00  0.1558E+02
  12.744  0.7197E+00  0.1559E+02
  12.754  0.7136E+00  0.1560E+02
  12.764  0.7075E+00  0.1560E+02
  12.774  0.7014E+00  0.1561E+02
  12.784  0.6954E+00  0.1562E+02
  12.794  0.6893E+00  0.1563E+02
  12.804  0.6833E+00  0.1563E+02
  12.814  0.6773E+00  0.1564E+02
  12.824  0.6713E+00  0.1565E+02
  12.834  0.6653E+00  0.1565E+02
  12.844  0.6594E+00  0.1566E+02
  12.854  0.6534E+00  0.1567E+02
  12.864  0.6475E+00  0.1567E+02
  12.874  0.6416E+00  0.1568E+02
  12.884  0.6357E+00  0.1569E+02
  12.894  0.6298E+00  0.1569E+02
  12.904  0.6239E+00  0.1570E+02
  12.914  0.6181E+00  0.1570E+02
  12.924  0.6123E+00  0.1571E+02
  12.934  0.6064E+00  0.1572E+02
  12.944  0.6006E+00  0.1572E+02
  12.954  0.5948E+00  0.1573E+02
  12.964  0.5891E+00  0.1573E+02
  12.974  0.5833E+00  0.1574E+02
  12.984  0.5776E+00  0.1575E+02
  12.994  0.5718E+00  0.1575E+02
  13.004  0.5661E+00  0.1576E+02
  13.014  0.5604E+00  0.1576E+02
  13.024  0.5548E+00  0.1577E+02
  13.034  0.5491E+00  0.1577E+02
  13.044  0.5434E+00  0.1578E+02
  13.054  0.5377E+00  0.1578E+02
  13.064  0.5319E+00  0.1579E+02
  13.074  0.5260E+00  0.1580E+02
  13.084  0.5200E+00  0.1580E+02
  13.094  0.4895E+00  0.1581E+02
  13.104  0.4039E+00  0.1581E+02
  13.114  0.4291E+00  0.1581E+02
  13.124  0.5172E+00  0.1582E+02
  13.134  0.5089E+00  0.1582E+02
  13.144  0.5147E+00  0.1583E+02
  13.154  0.6184E+00  0.1583E+02
  13.164  0.7934E+00  0.1584E+02
  13.174  0.9118E+00  0.1585E+02
  13.184  0.9500E+00  0.1586E+02
  13.194  0.9185E+00  0.1587E+02
  13.204  0.8316E+00  0.1588E+02
  13.214  0.1454E+01  0.1589E+02
  13.224  0.1445E+01  0.1590E+02
  13.234  0.5463E+00  0.1591E+02
  13.244  0.4856E+00  0.1592E+02
  13.254  0.4388E+00  0.1592E+02
  13.264  0.4048E+00  0.1593E+02
  13.274  0.3828E+00  0.1593E+02
  13.284  0.3705E+00  0.1593E+02
  13.294  0.3617E+00  0.1594E+02
  13.304  0.3497E+00  0.1594E+02
  13.314  0.3343E+00  0.1594E+02
  13.324  0.3155E+00  0.1595E+02
  13.334  0.2971E+00  0.1595E+02
  13.344  0.2802E+00  0.1595E+02
  13.354  0.2644E+00  0.1596E+02
  13.364  0.2498E+00  0.1596E+02
  13.374  0.2363E+00  0.1596E+02
  13.384  0.2239E+00  0.1596E+02
  13.394  0.2127E+00  0.1597E+02
  13.404  0.2026E+00  0.1597E+02
  13.414  0.1936E+00  0.1597E+02
  13.424  0.1857E+00  0.1597E+02
  13.434  0.1789E+00  0.1597E+02
  13.444  0.1730E+00  0.1598E+02
  13.454  0.1677E+00  0.1598E+02
  13.464  0.1623E+00  0.1598E+02
  13.474  0.1568E+00  0.1598E+02
  13.484  0.1513E+00  0.1598E+02
  13.494  0.1456E+00  0.1598E+02
  13.504  0.1398E+00  0.1598E+02
  13.514  0.1338E+00  0.1599E+02
  13.524  0.1278E+00  0.1599E+02
  13.534  0.1217E+00  0.1599E+02
  13.544  0.1154E+00  0.1599E+02
  13.554  0.1090E+00  0.1599E+02
  13.564  0.1025E+00  0.1599E+02
  13.574  0.9592E-01  0.1599E+02
  13.584  0.8920E-01  0.1599E+02
  13.594  0.8237E-01  0.1599E+02
  13.604  0.7542E-01  0.1600E+02
  13.614  0.6836E-01  0.1600E+02
